File: data/W6814c2/XRD_Omega/W6814c2_Omega-Scan_2deg_0.002_0_5.xy
18.76530 258.0
18.77330 264.0
18.78130 234.0
18.78930 251.0
18.79730 272.0
18.80530 283.0
18.81330 285.0
18.82130 288.0
18.82930 280.0
18.83730 289.0
18.84530 267.0
18.85330 271.0
18.86130 327.0
18.86930 300.0
18.87730 308.0
18.88530 351.0
18.89330 323.0
18.90130 291.0
18.90930 326.0
18.91730 320.0
18.92530 330.0
18.93330 360.0
18.94130 354.0
18.94930 384.0
18.95730 379.0
18.96530 359.0
18.97330 375.0
18.98130 374.0
18.98930 370.0
18.99730 360.0
19.00530 413.0
19.01330 383.0
19.02130 414.0
19.02930 401.0
19.03730 414.0
19.04530 455.0
19.05330 456.0
19.06130 450.0
19.06930 448.0
19.07730 434.0
19.08530 496.0
19.09330 498.0
19.10130 500.0
19.10930 535.0
19.11730 569.0
19.12530 590.0
19.13330 558.0
19.14130 618.0
19.14930 630.0
19.15730 619.0
19.16530 601.0
19.17330 638.0
19.18130 624.0
19.18930 694.0
19.19730 653.0
19.20530 764.0
19.21330 744.0
19.22130 748.0
19.22930 811.0
19.23730 827.0
19.24530 797.0
19.25330 837.0
19.26130 900.0
19.26930 913.0
19.27730 934.0
19.28530 956.0
19.29330 967.0
19.30130 943.0
19.30930 960.0
19.31730 1056.0
19.32530 1079.0
19.33330 1160.0
19.34130 1157.0
19.34930 1116.0
19.35730 1223.0
19.36530 1220.0
19.37330 1196.0
19.38130 1260.0
19.38930 1400.0
19.39730 1362.0
19.40530 1451.0
19.41330 1465.0
19.42130 1562.0
19.42930 1562.0
19.43730 1614.0
19.44530 1641.0
19.45330 1737.0
19.46130 1722.0
19.46930 1825.0
19.47730 1807.0
19.48530 1895.0
19.49330 1906.0
19.50130 2141.0
19.50930 2050.0
19.51730 2210.0
19.52530 2191.0
19.53330 2198.0
19.54130 2258.0
19.54930 2322.0
19.55730 2350.0
19.56530 2382.0
19.57330 2467.0
19.58130 2482.0
19.58930 2547.0
19.59730 2677.0
19.60530 2601.0
19.61330 2632.0
19.62130 2743.0
19.62930 2784.0
19.63730 2790.0
19.64530 2883.0
19.65330 2846.0
19.66130 2881.0
19.66930 2921.0
19.67730 2980.0
19.68530 2905.0
19.69330 2829.0
19.70130 2882.0
19.70930 2846.0
19.71730 2975.0
19.72530 2865.0
19.73330 2780.0
19.74130 2767.0
19.74930 2716.0
19.75730 2667.0
19.76530 2745.0
19.77330 2654.0
19.78130 2755.0
19.78930 2639.0
19.79730 2768.0
19.80530 2714.0
19.81330 2627.0
19.82130 2476.0
19.82930 2379.0
19.83730 2380.0
19.84530 2242.0
19.85330 2249.0
19.86130 2076.0
19.86930 2054.0
19.87730 2020.0
19.88530 2032.0
19.89330 1913.0
19.90130 1836.0
19.90930 1791.0
19.91730 1630.0
19.92530 1687.0
19.93330 1577.0
19.94130 1643.0
19.94930 1573.0
19.95730 1439.0
19.96530 1467.0
19.97330 1367.0
19.98130 1299.0
19.98930 1279.0
19.99730 1239.0
20.00530 1182.0
20.01330 1084.0
20.02130 1133.0
20.02930 1075.0
20.03730 1030.0
20.04530 1037.0
20.05330 991.0
20.06130 933.0
20.06930 881.0
20.07730 923.0
20.08530 832.0
20.09330 811.0
20.10130 788.0
20.10930 830.0
20.11730 770.0
20.12530 758.0
20.13330 744.0
20.14130 722.0
20.14930 711.0
20.15730 685.0
20.16530 616.0
20.17330 605.0
20.18130 636.0
20.18930 630.0
20.19730 588.0
20.20530 602.0
20.21330 549.0
20.22130 585.0
20.22930 565.0
20.23730 529.0
20.24530 514.0
20.25330 500.0
20.26130 489.0
20.26930 517.0
20.27730 511.0
20.28530 475.0
20.29330 487.0
20.30130 483.0
20.30930 480.0
20.31730 427.0
20.32530 460.0
20.33330 444.0
20.34130 383.0
20.34930 425.0
20.35730 409.0
20.36530 418.0
20.37330 444.0
20.38130 410.0
20.38930 464.0
20.39730 401.0
20.40530 414.0
20.41330 358.0
20.42130 368.0
20.42930 347.0
20.43730 313.0
20.44530 277.0
20.45330 312.0
20.46130 285.0
20.46930 276.0
20.47730 306.0
20.48530 289.0
20.49330 283.0
20.50130 268.0
20.50930 270.0
20.51730 269.0
20.52530 279.0
20.53330 273.0
20.54130 265.0
20.54930 263.0
20.55730 239.0
20.56530 253.0
20.57330 249.0
20.58130 261.0
20.58930 246.0
20.59730 230.0
20.60530 262.0
20.61330 249.0
20.62130 229.0
20.62930 236.0
20.63730 236.0
20.64530 227.0
20.65330 228.0
20.66130 244.0
20.66930 229.0
20.67730 232.0
20.68530 201.0
20.69330 215.0
20.70130 223.0
20.70930 228.0
20.71730 226.0
20.72530 211.0
20.73330 218.0
20.74130 221.0
20.74930 222.0