File: data/W6814c2/XRD_Omega/W6814c2_Cr2O3_scan_omega_2deg_step_0.002deg0_1_new.xy
18.70240 248.0
18.71040 230.0
18.71840 263.0
18.72640 250.0
18.73440 269.0
18.74240 279.0
18.75040 266.0
18.75840 263.0
18.76640 266.0
18.77440 292.0
18.78240 301.0
18.79040 276.0
18.79840 255.0
18.80640 290.0
18.81440 270.0
18.82240 308.0
18.83040 297.0
18.83840 271.0
18.84640 289.0
18.85440 325.0
18.86240 305.0
18.87040 302.0
18.87840 323.0
18.88640 302.0
18.89440 326.0
18.90240 327.0
18.91040 337.0
18.91840 340.0
18.92640 352.0
18.93440 347.0
18.94240 386.0
18.95040 379.0
18.95840 367.0
18.96640 350.0
18.97440 390.0
18.98240 363.0
18.99040 353.0
18.99840 398.0
19.00640 421.0
19.01440 367.0
19.02240 404.0
19.03040 438.0
19.03840 428.0
19.04640 406.0
19.05440 438.0
19.06240 460.0
19.07040 463.0
19.07840 510.0
19.08640 533.0
19.09440 496.0
19.10240 561.0
19.11040 510.0
19.11840 487.0
19.12640 603.0
19.13440 554.0
19.14240 632.0
19.15040 589.0
19.15840 624.0
19.16640 641.0
19.17440 646.0
19.18240 646.0
19.19040 679.0
19.19840 701.0
19.20640 733.0
19.21440 778.0
19.22240 766.0
19.23040 747.0
19.23840 817.0
19.24640 840.0
19.25440 844.0
19.26240 893.0
19.27040 863.0
19.27840 888.0
19.28640 960.0
19.29440 1005.0
19.30240 973.0
19.31040 1073.0
19.31840 1110.0
19.32640 1075.0
19.33440 1087.0
19.34240 1183.0
19.35040 1151.0
19.35840 1213.0
19.36640 1246.0
19.37440 1254.0
19.38240 1333.0
19.39040 1415.0
19.39840 1300.0
19.40640 1445.0
19.41440 1530.0
19.42240 1570.0
19.43040 1551.0
19.43840 1647.0
19.44640 1768.0
19.45440 1730.0
19.46240 1733.0
19.47040 1789.0
19.47840 1883.0
19.48640 1837.0
19.49440 1942.0
19.50240 1979.0
19.51040 2045.0
19.51840 2104.0
19.52640 2179.0
19.53440 2130.0
19.54240 2311.0
19.55040 2365.0
19.55840 2385.0
19.56640 2392.0
19.57440 2524.0
19.58240 2487.0
19.59040 2409.0
19.59840 2618.0
19.60640 2623.0
19.61440 2693.0
19.62240 2764.0
19.63040 2821.0
19.63840 2815.0
19.64640 2892.0
19.65440 2826.0
19.66240 2853.0
19.67040 2868.0
19.67840 2850.0
19.68640 2919.0
19.69440 2861.0
19.70240 2934.0
19.71040 2927.0
19.71840 2848.0
19.72640 2924.0
19.73440 2848.0
19.74240 2730.0
19.75040 2697.0
19.75840 2742.0
19.76640 2700.0
19.77440 2721.0
19.78240 2650.0
19.79040 2622.0
19.79840 2705.0
19.80640 2668.0
19.81440 2606.0
19.82240 2454.0
19.83040 2561.0
19.83840 2461.0
19.84640 2268.0
19.85440 2105.0
19.86240 2130.0
19.87040 2091.0
19.87840 2059.0
19.88640 2006.0
19.89440 1899.0
19.90240 1880.0
19.91040 1884.0
19.91840 1688.0
19.92640 1625.0
19.93440 1652.0
19.94240 1541.0
19.95040 1553.0
19.95840 1457.0
19.96640 1426.0
19.97440 1445.0
19.98240 1285.0
19.99040 1255.0
19.99840 1200.0
20.00640 1213.0
20.01440 1159.0
20.02240 1117.0
20.03040 1053.0
20.03840 1017.0
20.04640 1009.0
20.05440 956.0
20.06240 901.0
20.07040 897.0
20.07840 869.0
20.08640 791.0
20.09440 814.0
20.10240 792.0
20.11040 779.0
20.11840 720.0
20.12640 714.0
20.13440 657.0
20.14240 673.0
20.15040 690.0
20.15840 644.0
20.16640 630.0
20.17440 601.0
20.18240 613.0
20.19040 591.0
20.19840 573.0
20.20640 579.0
20.21440 572.0
20.22240 534.0
20.23040 545.0
20.23840 491.0
20.24640 498.0
20.25440 482.0
20.26240 493.0
20.27040 422.0
20.27840 472.0
20.28640 471.0
20.29440 442.0
20.30240 424.0
20.31040 405.0
20.31840 410.0
20.32640 377.0
20.33440 363.0
20.34240 344.0
20.35040 361.0
20.35840 344.0
20.36640 354.0
20.37440 342.0
20.38240 329.0
20.39040 341.0
20.39840 314.0
20.40640 321.0
20.41440 305.0
20.42240 331.0
20.43040 289.0
20.43840 312.0
20.44640 322.0
20.45440 291.0
20.46240 277.0
20.47040 277.0
20.47840 287.0
20.48640 291.0
20.49440 254.0
20.50240 243.0
20.51040 253.0
20.51840 272.0
20.52640 248.0
20.53440 236.0
20.54240 256.0
20.55040 259.0
20.55840 256.0
20.56640 242.0
20.57440 273.0
20.58240 238.0
20.59040 235.0
20.59840 235.0
20.60640 228.0
20.61440 233.0
20.62240 217.0
20.63040 212.0
20.63840 229.0
20.64640 224.0
20.65440 211.0
20.66240 223.0
20.67040 245.0
20.67840 199.0
20.68640 221.0