File: data/W6723/XRD_2ThetaOmega/W6723_absolute_2th-om_10-100deg.xy
10.0045 25.0
10.3048 26.0
10.6052 24.0
10.9055 27.0
11.2059 21.0
11.5062 13.0
11.8066 18.0
12.1069 17.0
12.4073 17.0
12.7077 11.0
13.008 17.0
13.3084 23.0
13.6087 9.0
13.9091 14.0
14.2094 22.0
14.5098 19.0
14.8101 13.0
15.1105 16.0
15.4109 11.0
15.7112 10.0
16.0116 10.0
16.3119 10.0
16.6123 18.0
16.9126 17.0
17.213 17.0
17.5133 11.0
17.8137 12.0
18.1141 10.0
18.4144 10.0
18.7148 8.0
19.0151 11.0
19.3155 12.0
19.6158 13.0
19.9162 7.0
20.2165 1.0
20.5169 11.0
20.8172 7.0
21.1176 12.0
21.418 9.0
21.7183 6.0
22.0187 0.0
22.319 9.0
22.6194 4.0
22.9197 8.0
23.2201 6.0
23.5204 5.0
23.8208 4.0
24.1212 4.0
24.4215 7.0
24.7219 3.0
25.0222 12.0
25.3226 5.0
25.6229 6.0
25.9233 6.0
26.2236 7.0
26.524 8.0
26.8244 4.0
27.1247 6.0
27.4251 6.0
27.7254 1.0
28.0258 2.0
28.3261 2.0
28.6265 2.0
28.9268 6.0
29.2272 1.0
29.5276 1.0
29.8279 3.0
30.1283 5.0
30.4286 4.0
30.729 7.0
31.0293 4.0
31.3297 11.0
31.63 5.0
31.9304 3.0
32.2307 5.0
32.5311 3.0
32.8315 5.0
33.1318 4.0
33.4322 8.0
33.7325 6.0
34.0329 5.0
34.3332 6.0
34.6336 5.0
34.9339 1.0
35.2343 4.0
35.5347 4.0
35.835 3.0
36.1354 4.0
36.4357 2.0
36.7361 3.0
37.0364 1.0
37.3368 7.0
37.6371 1.0
37.9375 7.0
38.2379 2.0
38.5382 2.0
38.8386 2.0
39.1389 3.0
39.4393 1.0
39.7396 2.0
40.04 4.0
40.3403 2.0
40.6407 1.0
40.941 0.0
41.2414 2.0
41.5418 3.0
41.8421 2.0
42.1425 1.0
42.4428 0.0
42.7432 3.0
43.0435 2.0
43.3439 3.0
43.6442 2.0
43.9446 2.0
44.245 4.0
44.5453 1.0
44.8457 2.0
45.146 4.0
45.4464 3.0
45.7467 5.0
46.0471 0.0
46.3474 0.0
46.6478 6.0
46.9482 4.0
47.2485 1.0
47.5489 2.0
47.8492 3.0
48.1496 4.0
48.4499 4.0
48.7503 0.0
49.0506 3.0
49.351 6.0
49.6514 2.0
49.9517 1.0
50.2521 1.0
50.5524 1.0
50.8528 0.0
51.1531 1.0
51.4535 2.0
51.7538 2.0
52.0542 1.0
52.3545 2.0
52.6549 0.0
52.9553 2.0
53.2556 4.0
53.556 4.0
53.8563 7.0
54.1567 1.0
54.457 1.0
54.7574 6.0
55.0577 5.0
55.3581 2.0
55.6585 4.0
55.9588 2.0
56.2592 5.0
56.5595 2.0
56.8599 2.0
57.1602 5.0
57.4606 2.0
57.7609 3.0
58.0613 1.0
58.3617 2.0
58.662 1.0
58.9624 3.0
59.2627 2.0
59.5631 4.0
59.8634 8.0
60.1638 1.0
60.4641 6.0
60.7645 17.0
61.0648 4.0
61.3652 3.0
61.6656 5.0
61.9659 10.0
62.2663 4.0
62.5666 8.0
62.867 7.0
63.1673 6.0
63.4677 8.0
63.768 18.0
64.0684 15.0
64.3688 46.0
64.6691 132.0
64.9695 334.0
65.2698 22.0
65.5702 28.0
65.8705 16.0
66.1709 11.0
66.4712 20.0
66.7716 21.0
67.072 46.0
67.3723 54.0
67.6727 127.0
67.973 551.0
68.2734 2432.0
68.5737 350.0
68.8741 111.0
69.1744 64.0
69.4748 36.0
69.7752 26.0
70.0755 18.0
70.3759 15.0
70.6762 12.0
70.9766 15.0
71.2769 5.0
71.5773 6.0
71.8776 4.0
72.178 2.0
72.4783 5.0
72.7787 5.0
73.0791 4.0
73.3794 4.0
73.6798 6.0
73.9801 2.0
74.2805 2.0
74.5808 5.0
74.8812 0.0
75.1815 1.0
75.4819 9.0
75.7823 0.0
76.0826 0.0
76.383 2.0
76.6833 1.0
76.9837 2.0
77.284 0.0
77.5844 1.0
77.8847 2.0
78.1851 2.0
78.4855 2.0
78.7858 4.0
79.0862 3.0
79.3865 0.0
79.6869 3.0
79.9872 2.0
80.2876 2.0
80.5879 0.0
80.8883 4.0
81.1886 6.0
81.489 0.0
81.7894 0.0
82.0897 3.0
82.3901 0.0
82.6904 2.0
82.9908 0.0
83.2911 0.0
83.5915 0.0
83.8918 1.0
84.1922 0.0
84.4926 0.0
84.7929 2.0
85.0933 1.0
85.3936 2.0
85.694 1.0
85.9943 2.0
86.2947 2.0
86.595 2.0
86.8954 3.0
87.1958 5.0
87.4961 1.0
87.7965 3.0
88.0968 2.0
88.3972 0.0
88.6975 0.0
88.9979 4.0
89.2982 1.0
89.5986 0.0
89.8989 3.0
90.1993 2.0
90.4997 0.0
90.8 2.0
91.1004 0.0
91.4007 1.0
91.7011 2.0
92.0014 3.0
92.3018 0.0
92.6021 3.0
92.9025 1.0
93.2029 1.0
93.5032 0.0
93.8036 0.0
94.1039 1.0
94.4043 3.0
94.7046 2.0
95.005 2.0
95.3053 3.0
95.6057 1.0
95.9061 1.0
96.2064 0.0
96.5068 1.0
96.8071 4.0
97.1075 0.0
97.4078 0.0
97.7082 0.0
98.0085 0.0
98.3089 2.0
98.6093 0.0
98.9096 2.0
99.21 4.0
99.5103 0.0
99.8107 2.0
99.9978 2.0