File: data/W6723/XRD_2ThetaOmega/W6723_absolute_2th-om_58-72deg-20min_3.xy
58.0028 323.0
58.0496 327.0
58.0964 317.0
58.1432 295.0
58.1899 305.0
58.2367 263.0
58.2835 277.0
58.3303 288.0
58.377 299.0
58.4238 279.0
58.4706 283.0
58.5174 308.0
58.5642 262.0
58.6109 279.0
58.6577 314.0
58.7045 283.0
58.7513 294.0
58.798 297.0
58.8448 289.0
58.8916 299.0
58.9384 268.0
58.9851 280.0
59.0319 274.0
59.0787 285.0
59.1255 282.0
59.1722 289.0
59.219 275.0
59.2658 267.0
59.3126 288.0
59.3594 273.0
59.4061 306.0
59.4529 285.0
59.4997 273.0
59.5465 298.0
59.5932 283.0
59.64 296.0
59.6868 279.0
59.7336 277.0
59.7803 250.0
59.8271 275.0
59.8739 271.0
59.9207 282.0
59.9674 297.0
60.0142 323.0
60.061 324.0
60.1078 352.0
60.1546 307.0
60.2013 305.0
60.2481 322.0
60.2949 316.0
60.3417 313.0
60.3884 306.0
60.4352 311.0
60.482 283.0
60.5288 307.0
60.5755 320.0
60.6223 321.0
60.6691 356.0
60.7159 390.0
60.7627 676.0
60.8094 2073.0
60.8562 2028.0
60.903 1231.0
60.9498 764.0
60.9965 482.0
61.0433 390.0
61.0901 415.0
61.1369 381.0
61.1836 353.0
61.2304 308.0
61.2772 369.0
61.324 343.0
61.3707 371.0
61.4175 354.0
61.4643 371.0
61.5111 384.0
61.5579 350.0
61.6046 378.0
61.6514 442.0
61.6982 452.0
61.745 440.0
61.7917 440.0
61.8385 408.0
61.8853 418.0
61.9321 365.0
61.9788 365.0
62.0256 371.0
62.0724 362.0
62.1192 343.0
62.166 378.0
62.2127 375.0
62.2595 369.0
62.3063 371.0
62.3531 407.0
62.3998 326.0
62.4466 306.0
62.4934 348.0
62.5402 372.0
62.5869 372.0
62.6337 343.0
62.6805 341.0
62.7273 363.0
62.774 359.0
62.8208 373.0
62.8676 339.0
62.9144 378.0
62.9612 387.0
63.0079 380.0
63.0547 365.0
63.1015 361.0
63.1483 395.0
63.195 393.0
63.2418 388.0
63.2886 377.0
63.3354 439.0
63.3821 436.0
63.4289 413.0
63.4757 402.0
63.5225 416.0
63.5693 453.0
63.616 481.0
63.6628 488.0
63.7096 497.0
63.7564 570.0
63.8031 482.0
63.8499 559.0
63.8967 547.0
63.9435 613.0
63.9902 640.0
64.037 695.0
64.0838 756.0
64.1306 795.0
64.1773 917.0
64.2241 1003.0
64.2709 1199.0
64.3177 1337.0
64.3645 1551.0
64.4112 1943.0
64.458 2309.0
64.5048 2984.0
64.5516 4055.0
64.5983 5931.0
64.6451 8179.0
64.6919 10269.0
64.7387 11308.0
64.7854 11101.0
64.8322 9978.0
64.879 9613.0
64.9258 10726.0
64.9725 9368.0
65.0193 5503.0
65.0661 3579.0
65.1129 2427.0
65.1597 1835.0
65.2064 1528.0
65.2532 1247.0
65.3 1028.0
65.3468 945.0
65.3935 869.0
65.4403 1017.0
65.4871 1488.0
65.5339 1082.0
65.5806 905.0
65.6274 656.0
65.6742 670.0
65.721 613.0
65.7678 611.0
65.8145 574.0
65.8613 587.0
65.9081 593.0
65.9549 585.0
66.0016 569.0
66.0484 583.0
66.0952 642.0
66.142 678.0
66.1887 620.0
66.2355 608.0
66.2823 598.0
66.3291 630.0
66.3758 658.0
66.4226 682.0
66.4694 662.0
66.5162 681.0
66.563 711.0
66.6097 679.0
66.6565 737.0
66.7033 738.0
66.7501 827.0
66.7968 854.0
66.8436 906.0
66.8904 892.0
66.9372 887.0
66.9839 958.0
67.0307 921.0
67.0775 1037.0
67.1243 1055.0
67.1711 1136.0
67.2178 1195.0
67.2646 1303.0
67.3114 1363.0
67.3582 1379.0
67.4049 1530.0
67.4517 1566.0
67.4985 1697.0
67.5453 1871.0
67.592 2073.0
67.6388 2180.0
67.6856 2670.0
67.7324 3705.0
67.7791 5532.0
67.8259 6972.0
67.8727 7157.0
67.9195 7049.0
67.9663 9136.0
68.013 14647.0
68.0598 31756.0
68.1066 166842.0
68.1534 683061.0
68.2001 145415.0
68.2469 40499.0
68.2937 80034.0
68.3405 344379.0
68.3872 108136.0
68.434 22469.0
68.4808 11276.0
68.5276 7775.0
68.5743 5926.0
68.6211 4694.0
68.6679 3967.0
68.7147 3379.0
68.7615 3008.0
68.8082 2806.0
68.855 2326.0
68.9018 2232.0
68.9486 2084.0
68.9953 1969.0
69.0421 1798.0
69.0889 1666.0
69.1357 1648.0
69.1824 1545.0
69.2292 1490.0
69.276 1368.0
69.3228 1363.0
69.3696 1319.0
69.4163 1252.0
69.4631 1169.0
69.5099 1057.0
69.5567 1056.0
69.6034 972.0
69.6502 964.0
69.697 938.0
69.7438 937.0
69.7905 861.0
69.8373 851.0
69.8841 759.0
69.9309 793.0
69.9776 729.0
70.0244 724.0
70.0712 720.0
70.118 623.0
70.1648 608.0
70.2115 637.0
70.2583 624.0
70.3051 614.0
70.3519 587.0
70.3986 508.0
70.4454 585.0
70.4922 563.0
70.539 568.0
70.5857 520.0
70.6325 503.0
70.6793 564.0
70.7261 484.0
70.7729 468.0
70.8196 456.0
70.8664 459.0
70.9132 455.0
70.96 445.0
71.0067 425.0
71.0535 439.0
71.1003 431.0
71.1471 423.0
71.1938 441.0
71.2406 389.0
71.2874 421.0
71.3342 383.0
71.3809 396.0
71.4277 395.0
71.4745 376.0
71.5213 408.0
71.5681 412.0
71.6148 353.0
71.6616 363.0
71.7084 362.0
71.7552 352.0
71.8019 396.0
71.8487 389.0
71.8955 375.0
71.9423 365.0
71.989 393.0
71.9989 348.0