File: data/W6815c2/XRD_Omega/W6815c2_Cr2O3_scan_omega_2deg_step_0.002deg0_2_new.xy
18.31560 230.0
18.32360 274.0
18.33160 262.0
18.33960 233.0
18.34760 247.0
18.35560 306.0
18.36360 272.0
18.37160 259.0
18.37960 239.0
18.38760 263.0
18.39560 255.0
18.40360 269.0
18.41160 257.0
18.41960 252.0
18.42760 237.0
18.43560 299.0
18.44360 258.0
18.45160 255.0
18.45960 293.0
18.46760 278.0
18.47560 287.0
18.48360 289.0
18.49160 257.0
18.49960 287.0
18.50760 301.0
18.51560 291.0
18.52360 323.0
18.53160 298.0
18.53960 304.0
18.54760 312.0
18.55560 294.0
18.56360 295.0
18.57160 298.0
18.57960 313.0
18.58760 353.0
18.59560 325.0
18.60360 343.0
18.61160 327.0
18.61960 320.0
18.62760 313.0
18.63560 295.0
18.64360 351.0
18.65160 369.0
18.65960 325.0
18.66760 370.0
18.67560 383.0
18.68360 341.0
18.69160 357.0
18.69960 384.0
18.70760 397.0
18.71560 361.0
18.72360 352.0
18.73160 394.0
18.73960 431.0
18.74760 424.0
18.75560 425.0
18.76360 392.0
18.77160 466.0
18.77960 448.0
18.78760 442.0
18.79560 438.0
18.80360 442.0
18.81160 454.0
18.81960 481.0
18.82760 536.0
18.83560 513.0
18.84360 531.0
18.85160 512.0
18.85960 502.0
18.86760 486.0
18.87560 569.0
18.88360 526.0
18.89160 546.0
18.89960 584.0
18.90760 583.0
18.91560 588.0
18.92360 608.0
18.93160 553.0
18.93960 657.0
18.94760 613.0
18.95560 618.0
18.96360 646.0
18.97160 687.0
18.97960 676.0
18.98760 710.0
18.99560 703.0
19.00360 730.0
19.01160 739.0
19.01960 760.0
19.02760 797.0
19.03560 779.0
19.04360 817.0
19.05160 803.0
19.05960 817.0
19.06760 895.0
19.07560 814.0
19.08360 912.0
19.09160 959.0
19.09960 900.0
19.10760 975.0
19.11560 964.0
19.12360 957.0
19.13160 1045.0
19.13960 1092.0
19.14760 1067.0
19.15560 1162.0
19.16360 1218.0
19.17160 1194.0
19.17960 1232.0
19.18760 1289.0
19.19560 1392.0
19.20360 1373.0
19.21160 1387.0
19.21960 1554.0
19.22760 1471.0
19.23560 1590.0
19.24360 1685.0
19.25160 1583.0
19.25960 1727.0
19.26760 1689.0
19.27560 1720.0
19.28360 1735.0
19.29160 1705.0
19.29960 1711.0
19.30760 1739.0
19.31560 1701.0
19.32360 1647.0
19.33160 1627.0
19.33960 1679.0
19.34760 1627.0
19.35560 1643.0
19.36360 1557.0
19.37160 1630.0
19.37960 1533.0
19.38760 1574.0
19.39560 1520.0
19.40360 1515.0
19.41160 1471.0
19.41960 1440.0
19.42760 1492.0
19.43560 1412.0
19.44360 1348.0
19.45160 1273.0
19.45960 1392.0
19.46760 1288.0
19.47560 1297.0
19.48360 1260.0
19.49160 1258.0
19.49960 1184.0
19.50760 1172.0
19.51560 1159.0
19.52360 1197.0
19.53160 1131.0
19.53960 1099.0
19.54760 996.0
19.55560 1028.0
19.56360 1038.0
19.57160 1019.0
19.57960 1074.0
19.58760 1031.0
19.59560 976.0
19.60360 889.0
19.61160 975.0
19.61960 947.0
19.62760 851.0
19.63560 854.0
19.64360 891.0
19.65160 846.0
19.65960 844.0
19.66760 794.0
19.67560 821.0
19.68360 840.0
19.69160 793.0
19.69960 808.0
19.70760 732.0
19.71560 775.0
19.72360 766.0
19.73160 717.0
19.73960 721.0
19.74760 698.0
19.75560 710.0
19.76360 692.0
19.77160 724.0
19.77960 741.0
19.78760 834.0
19.79560 954.0
19.80360 852.0
19.81160 852.0
19.81960 800.0
19.82760 690.0
19.83560 686.0
19.84360 668.0
19.85160 679.0
19.85960 653.0
19.86760 605.0
19.87560 622.0
19.88360 548.0
19.89160 561.0
19.89960 574.0
19.90760 549.0
19.91560 523.0
19.92360 520.0
19.93160 519.0
19.93960 534.0
19.94760 486.0
19.95560 520.0
19.96360 492.0
19.97160 475.0
19.97960 465.0
19.98760 392.0
19.99560 409.0
20.00360 410.0
20.01160 453.0
20.01960 403.0
20.02760 381.0
20.03560 401.0
20.04360 390.0
20.05160 366.0
20.05960 383.0
20.06760 378.0
20.07560 373.0
20.08360 372.0
20.09160 342.0
20.09960 335.0
20.10760 327.0
20.11560 337.0
20.12360 313.0
20.13160 338.0
20.13960 332.0
20.14760 351.0
20.15560 324.0
20.16360 328.0
20.17160 296.0
20.17960 297.0
20.18760 337.0
20.19560 298.0
20.20360 319.0
20.21160 302.0
20.21960 284.0
20.22760 294.0
20.23560 318.0
20.24360 309.0
20.25160 286.0
20.25960 304.0
20.26760 324.0
20.27560 293.0
20.28360 310.0
20.29160 276.0
20.29960 280.0