File: data/W6815c2/XRD_Omega/W6815c2_Omega-Scan_2deg_0.002_0_6.xy
18.80830 396.0
18.81630 386.0
18.82430 413.0
18.83230 453.0
18.84030 410.0
18.84830 443.0
18.85630 470.0
18.86430 448.0
18.87230 463.0
18.88030 467.0
18.88830 466.0
18.89630 514.0
18.90430 504.0
18.91230 493.0
18.92030 490.0
18.92830 500.0
18.93630 541.0
18.94430 520.0
18.95230 545.0
18.96030 565.0
18.96830 570.0
18.97630 601.0
18.98430 613.0
18.99230 624.0
19.00030 655.0
19.00830 645.0
19.01630 639.0
19.02430 676.0
19.03230 735.0
19.04030 745.0
19.04830 740.0
19.05630 741.0
19.06430 778.0
19.07230 792.0
19.08030 772.0
19.08830 819.0
19.09630 821.0
19.10430 929.0
19.11230 941.0
19.12030 937.0
19.12830 960.0
19.13630 1001.0
19.14430 1020.0
19.15230 1150.0
19.16030 1114.0
19.16830 1207.0
19.17630 1258.0
19.18430 1267.0
19.19230 1283.0
19.20030 1325.0
19.20830 1470.0
19.21630 1428.0
19.22430 1473.0
19.23230 1513.0
19.24030 1679.0
19.24830 1679.0
19.25630 1668.0
19.26430 1738.0
19.27230 1637.0
19.28030 1702.0
19.28830 1721.0
19.29630 1681.0
19.30430 1709.0
19.31230 1668.0
19.32030 1619.0
19.32830 1683.0
19.33630 1580.0
19.34430 1606.0
19.35230 1542.0
19.36030 1569.0
19.36830 1575.0
19.37630 1580.0
19.38430 1584.0
19.39230 1474.0
19.40030 1403.0
19.40830 1453.0
19.41630 1489.0
19.42430 1419.0
19.43230 1417.0
19.44030 1383.0
19.44830 1417.0
19.45630 1309.0
19.46430 1363.0
19.47230 1257.0
19.48030 1267.0
19.48830 1247.0
19.49630 1156.0
19.50430 1238.0
19.51230 1128.0
19.52030 1166.0
19.52830 1109.0
19.53630 1041.0
19.54430 1084.0
19.55230 1042.0
19.56030 1011.0
19.56830 976.0
19.57630 1013.0
19.58430 948.0
19.59230 993.0
19.60030 963.0
19.60830 945.0
19.61630 956.0
19.62430 926.0
19.63230 912.0
19.64030 880.0
19.64830 838.0
19.65630 823.0
19.66430 820.0
19.67230 766.0
19.68030 749.0
19.68830 797.0
19.69630 763.0
19.70430 742.0
19.71230 748.0
19.72030 683.0
19.72830 718.0
19.73630 681.0
19.74430 708.0
19.75230 708.0
19.76030 679.0
19.76830 671.0
19.77630 750.0
19.78430 799.0
19.79230 903.0
19.80030 892.0
19.80830 833.0
19.81630 769.0
19.82430 665.0
19.83230 694.0
19.84030 616.0
19.84830 684.0
19.85630 639.0
19.86430 615.0
19.87230 608.0
19.88030 576.0
19.88830 597.0
19.89630 584.0
19.90430 537.0
19.91230 523.0
19.92030 515.0
19.92830 550.0
19.93630 511.0
19.94430 523.0
19.95230 517.0
19.96030 550.0
19.96830 528.0
19.97630 502.0
19.98430 506.0
19.99230 438.0
20.00030 407.0
20.00830 442.0
20.01630 431.0
20.02430 425.0
20.03230 418.0
20.04030 415.0
20.04830 395.0
20.05630 364.0
20.06430 368.0
20.07230 371.0
20.08030 372.0
20.08830 390.0
20.09630 388.0
20.10430 348.0
20.11230 375.0
20.12030 371.0
20.12830 385.0
20.13630 393.0
20.14430 310.0
20.15230 357.0
20.16030 365.0
20.16830 353.0
20.17630 344.0
20.18430 344.0
20.19230 356.0
20.20030 326.0
20.20830 338.0
20.21630 324.0
20.22430 350.0
20.23230 337.0
20.24030 330.0
20.24830 325.0
20.25630 296.0
20.26430 311.0
20.27230 314.0
20.28030 303.0
20.28830 325.0
20.29630 305.0
20.30430 324.0
20.31230 326.0
20.32030 335.0
20.32830 316.0
20.33630 322.0
20.34430 332.0
20.35230 338.0
20.36030 313.0
20.36830 323.0
20.37630 338.0
20.38430 321.0
20.39230 296.0
20.40030 293.0
20.40830 286.0
20.41630 261.0
20.42430 252.0
20.43230 249.0
20.44030 262.0
20.44830 269.0
20.45630 259.0
20.46430 232.0
20.47230 252.0
20.48030 223.0
20.48830 219.0
20.49630 219.0
20.50430 221.0
20.51230 238.0
20.52030 235.0
20.52830 229.0
20.53630 207.0
20.54430 227.0
20.55230 220.0
20.56030 211.0
20.56830 211.0
20.57630 212.0
20.58430 226.0
20.59230 232.0
20.60030 217.0
20.60830 256.0
20.61630 221.0
20.62430 198.0
20.63230 215.0
20.64030 187.0
20.64830 178.0
20.65630 220.0
20.66430 210.0
20.67230 219.0
20.68030 224.0
20.68830 210.0
20.69630 222.0
20.70430 208.0
20.71230 221.0
20.72030 215.0
20.72830 218.0
20.73630 224.0
20.74430 194.0
20.75230 215.0
20.76030 210.0
20.76830 234.0
20.77630 207.0
20.78430 186.0
20.79230 192.0