File: data/W6933m/XRD_2ThetaOmega/w6933m_2theta
55.01000 0.0
55.08000 0.0
55.15000 1.0
55.22000 2.0
55.29000 2.0
55.36000 0.0
55.43000 0.0
55.50000 1.0
55.57000 0.0
55.64000 2.0
55.71000 0.0
55.78000 1.0
55.85000 0.0
55.92000 2.0
55.99000 0.0
56.06000 0.0
56.13000 1.0
56.20000 2.0
56.27000 1.0
56.34000 2.0
56.41000 0.0
56.48000 0.0
56.55000 0.0
56.62000 0.0
56.69000 0.0
56.76000 1.0
56.83000 0.0
56.90000 0.0
56.97000 0.0
57.04000 0.0
57.11000 1.0
57.18000 1.0
57.25000 2.0
57.32000 0.0
57.39000 0.0
57.46000 1.0
57.53000 1.0
57.60000 0.0
57.67000 1.0
57.74000 0.0
57.81000 1.0
57.88000 1.0
57.95000 0.0
58.02000 0.0
58.09000 0.0
58.16000 0.0
58.23000 0.0
58.30000 0.0
58.37000 2.0
58.44000 0.0
58.51000 0.0
58.58000 0.0
58.65000 0.0
58.72000 1.0
58.79000 0.0
58.86000 0.0
58.93000 1.0
59.00000 1.0
59.07000 0.0
59.14000 2.0
59.21000 0.0
59.28000 0.0
59.35000 0.0
59.42000 0.0
59.49000 1.0
59.56000 1.0
59.63000 1.0
59.70000 0.0
59.77000 0.0
59.84000 1.0
59.91000 0.0
59.98000 0.0
60.05000 2.0
60.12000 2.0
60.19000 4.0
60.26000 0.0
60.33000 1.0
60.40000 3.0
60.47000 1.0
60.54000 0.0
60.61000 0.0
60.68000 2.0
60.75000 2.0
60.82000 3.0
60.89000 0.0
60.96000 1.0
61.03000 0.0
61.10000 0.0
61.17000 0.0
61.24000 2.0
61.31000 0.0
61.38000 0.0
61.45000 1.0
61.52000 2.0
61.59000 3.0
61.66000 1.0
61.73000 0.0
61.80000 0.0
61.87000 0.0
61.94000 1.0
62.01000 2.0
62.08000 2.0
62.15000 1.0
62.22000 0.0
62.29000 1.0
62.36000 1.0
62.43000 1.0
62.50000 1.0
62.57000 0.0
62.64000 0.0
62.71000 1.0
62.78000 1.0
62.85000 1.0
62.92000 2.0
62.99000 2.0
63.06000 1.0
63.13000 2.0
63.20000 2.0
63.27000 1.0
63.34000 1.0
63.41000 0.0
63.48000 0.0
63.55000 2.0
63.62000 4.0
63.69000 3.0
63.76000 3.0
63.83000 2.0
63.90000 5.0
63.97000 2.0
64.04000 6.0
64.11000 6.0
64.18000 3.0
64.25000 5.0
64.32000 10.0
64.39000 14.0
64.46000 22.0
64.53000 27.0
64.60000 44.0
64.67000 83.0
64.74000 106.0
64.81000 199.0
64.88000 339.0
64.95000 460.0
65.02000 382.0
65.09000 354.0
65.16000 277.0
65.23000 137.0
65.30000 71.0
65.37000 39.0
65.44000 26.0
65.51000 14.0
65.58000 13.0
65.65000 11.0
65.72000 6.0
65.79000 5.0
65.86000 9.0
65.93000 7.0
66.00000 4.0
66.07000 6.0
66.14000 6.0
66.21000 1.0
66.28000 8.0
66.35000 4.0
66.42000 5.0
66.49000 5.0
66.56000 5.0
66.63000 7.0
66.70000 3.0
66.77000 7.0
66.84000 8.0
66.91000 9.0
66.98000 7.0
67.05000 9.0
67.12000 11.0
67.19000 8.0
67.26000 15.0
67.33000 16.0
67.40000 28.0
67.47000 25.0
67.54000 34.0
67.61000 48.0
67.68000 62.0
67.75000 110.0
67.82000 184.0
67.89000 444.0
67.96000 470.0
68.03000 579.0
68.10000 1443.0
68.17000 20434.0
68.24000 6124.0
68.31000 1951.0
68.38000 18379.0
68.45000 2146.0
68.52000 562.0
68.59000 413.0
68.66000 231.0
68.73000 145.0
68.80000 119.0
68.87000 86.0
68.94000 76.0
69.01000 60.0
69.08000 52.0
69.15000 57.0
69.22000 47.0
69.29000 42.0
69.36000 37.0
69.43000 34.0
69.50000 36.0
69.57000 29.0
69.64000 22.0
69.71000 19.0
69.78000 23.0
69.85000 21.0
69.92000 21.0
69.99000 15.0
70.06000 13.0
70.13000 16.0
70.20000 13.0
70.27000 14.0
70.34000 17.0
70.41000 6.0
70.48000 11.0
70.55000 5.0
70.62000 7.0
70.69000 9.0
70.76000 1.0
70.83000 3.0
70.90000 8.0
70.97000 2.0
71.04000 7.0
71.11000 1.0
71.18000 5.0
71.25000 3.0
71.32000 1.0
71.39000 5.0
71.46000 2.0
71.53000 1.0
71.60000 2.0
71.67000 3.0
71.74000 5.0
71.81000 1.0
71.88000 2.0
71.95000 3.0
72.02000 2.0
72.09000 2.0
72.16000 3.0
72.23000 3.0
72.30000 1.0
72.37000 0.0
72.44000 2.0
72.51000 3.0
72.58000 3.0
72.65000 0.0
72.72000 1.0
72.79000 4.0
72.86000 1.0
72.93000 1.0
73.00000 0.0
73.07000 1.0
73.14000 1.0
73.21000 0.0
73.28000 1.0
73.35000 2.0
73.42000 1.0
73.49000 3.0
73.56000 0.0
73.63000 2.0
73.70000 0.0
73.77000 5.0
73.84000 0.0
73.91000 2.0
73.98000 1.0
74.05000 3.0
74.12000 3.0
74.19000 2.0
74.26000 1.0
74.33000 0.0
74.40000 2.0
74.47000 0.0
74.54000 2.0
74.61000 2.0
74.68000 0.0
74.75000 0.0
74.82000 1.0
74.89000 2.0
74.96000 1.0
74.99000 1.0