File: data/W6933c/XRD_2ThetaOmega/w6933c_2theta
35.01000 3.0
35.05000 1.0
35.09000 1.0
35.13000 1.0
35.17000 1.0
35.21000 1.0
35.25000 1.0
35.29000 2.0
35.33000 0.0
35.37000 1.0
35.41000 1.0
35.45000 2.0
35.49000 2.0
35.53000 0.0
35.57000 2.0
35.61000 2.0
35.65000 1.0
35.69000 1.0
35.73000 2.0
35.77000 0.0
35.81000 1.0
35.85000 1.0
35.89000 4.0
35.93000 0.0
35.97000 1.0
36.01000 1.0
36.05000 0.0
36.09000 0.0
36.13000 1.0
36.17000 1.0
36.21000 2.0
36.25000 1.0
36.29000 1.0
36.33000 0.0
36.37000 1.0
36.41000 2.0
36.45000 1.0
36.49000 1.0
36.53000 1.0
36.57000 2.0
36.61000 0.0
36.65000 0.0
36.69000 0.0
36.73000 1.0
36.77000 1.0
36.81000 0.0
36.85000 0.0
36.89000 0.0
36.93000 1.0
36.97000 1.0
37.01000 2.0
37.05000 0.0
37.09000 4.0
37.13000 2.0
37.17000 2.0
37.21000 0.0
37.25000 1.0
37.29000 1.0
37.33000 0.0
37.37000 0.0
37.41000 2.0
37.45000 2.0
37.49000 1.0
37.53000 1.0
37.57000 0.0
37.61000 2.0
37.65000 2.0
37.69000 3.0
37.73000 1.0
37.77000 0.0
37.81000 2.0
37.85000 1.0
37.89000 1.0
37.93000 2.0
37.97000 2.0
38.01000 2.0
38.05000 4.0
38.09000 4.0
38.13000 4.0
38.17000 2.0
38.21000 5.0
38.25000 1.0
38.29000 3.0
38.33000 7.0
38.37000 8.0
38.41000 3.0
38.45000 5.0
38.49000 12.0
38.53000 10.0
38.57000 6.0
38.61000 6.0
38.65000 10.0
38.69000 9.0
38.73000 14.0
38.77000 19.0
38.81000 16.0
38.85000 18.0
38.89000 26.0
38.93000 24.0
38.97000 47.0
39.01000 50.0
39.05000 73.0
39.09000 129.0
39.13000 203.0
39.17000 245.0
39.21000 337.0
39.25000 409.0
39.29000 346.0
39.33000 345.0
39.37000 233.0
39.41000 211.0
39.45000 120.0
39.49000 74.0
39.53000 58.0
39.57000 32.0
39.61000 14.0
39.65000 17.0
39.69000 11.0
39.73000 16.0
39.77000 11.0
39.81000 7.0
39.85000 5.0
39.89000 5.0
39.93000 6.0
39.97000 5.0
40.01000 3.0
40.05000 1.0
40.09000 2.0
40.13000 5.0
40.17000 3.0
40.21000 2.0
40.25000 2.0
40.29000 3.0
40.33000 2.0
40.37000 1.0
40.41000 3.0
40.45000 1.0
40.49000 2.0
40.53000 1.0
40.57000 1.0
40.61000 0.0
40.65000 1.0
40.69000 3.0
40.73000 2.0
40.77000 2.0
40.81000 5.0
40.85000 3.0
40.89000 0.0
40.93000 4.0
40.97000 4.0
41.01000 4.0
41.05000 2.0
41.09000 5.0
41.13000 2.0
41.17000 4.0
41.21000 2.0
41.25000 3.0
41.29000 5.0
41.33000 5.0
41.37000 19.0
41.41000 10.0
41.45000 50.0
41.49000 66.0
41.53000 47.0
41.57000 82.0
41.61000 321.0
41.65000 4313.0
41.69000 1017.0
41.73000 365.0
41.77000 2603.0
41.81000 289.0
41.85000 82.0
41.89000 64.0
41.93000 51.0
41.97000 40.0
42.01000 26.0
42.05000 30.0
42.09000 15.0
42.13000 9.0
42.17000 10.0
42.21000 10.0
42.25000 10.0
42.29000 4.0
42.33000 4.0
42.37000 5.0
42.41000 5.0
42.45000 7.0
42.49000 3.0
42.53000 7.0
42.57000 3.0
42.61000 4.0
42.65000 3.0
42.69000 2.0
42.73000 3.0
42.77000 3.0
42.81000 7.0
42.85000 2.0
42.89000 2.0
42.93000 5.0
42.97000 2.0
43.01000 2.0
43.05000 0.0
43.09000 1.0
43.13000 5.0
43.17000 1.0
43.21000 2.0
43.25000 2.0
43.29000 0.0
43.33000 5.0
43.37000 1.0
43.41000 4.0
43.45000 2.0
43.49000 3.0
43.53000 3.0
43.57000 5.0
43.61000 2.0
43.65000 1.0
43.69000 3.0
43.73000 5.0
43.77000 1.0
43.81000 2.0
43.85000 1.0
43.89000 3.0
43.93000 2.0
43.97000 0.0
44.01000 4.0
44.05000 2.0
44.09000 2.0
44.13000 0.0
44.17000 3.0
44.21000 4.0
44.25000 2.0
44.29000 1.0
44.33000 2.0
44.37000 3.0
44.41000 3.0
44.45000 3.0
44.49000 1.0
44.53000 3.0
44.57000 1.0
44.61000 2.0
44.65000 1.0
44.69000 5.0
44.73000 3.0
44.77000 0.0
44.81000 1.0
44.85000 3.0
44.89000 1.0
44.93000 1.0
44.97000 2.0
44.99000 0.0