File: data/W6716/XRD_2ThetaOmega/phi0scan_2th-om_m_Cr2O3_55-75deg_PIXscan_4min_W6716_5.xy
55.0019 12.0
55.0708 11.0
55.1397 12.0
55.2087 15.0
55.2776 12.0
55.3465 9.0
55.4155 15.0
55.4844 10.0
55.5533 11.0
55.6223 8.0
55.6912 13.0
55.7601 6.0
55.8291 11.0
55.898 8.0
55.9669 4.0
56.0359 11.0
56.1048 7.0
56.1737 13.0
56.2427 12.0
56.3116 7.0
56.3805 6.0
56.4495 10.0
56.5184 8.0
56.5873 9.0
56.6563 9.0
56.7252 9.0
56.7941 3.0
56.8631 18.0
56.932 10.0
57.0009 8.0
57.0699 11.0
57.1388 11.0
57.2077 5.0
57.2767 14.0
57.3456 11.0
57.4146 9.0
57.4835 8.0
57.5524 10.0
57.6214 14.0
57.6903 14.0
57.7592 19.0
57.8282 15.0
57.8971 12.0
57.966 11.0
58.035 6.0
58.1039 12.0
58.1728 9.0
58.2418 10.0
58.3107 8.0
58.3796 12.0
58.4486 9.0
58.5175 12.0
58.5864 9.0
58.6554 9.0
58.7243 9.0
58.7932 5.0
58.8622 10.0
58.9311 8.0
59 10.0
59.069 12.0
59.1379 13.0
59.2068 17.0
59.2758 8.0
59.3447 11.0
59.4136 9.0
59.4826 12.0
59.5515 9.0
59.6204 12.0
59.6894 13.0
59.7583 10.0
59.8272 4.0
59.8962 8.0
59.9651 8.0
60.034 15.0
60.103 9.0
60.1719 14.0
60.2408 16.0
60.3098 12.0
60.3787 17.0
60.4476 13.0
60.5166 13.0
60.5855 18.0
60.6544 33.0
60.7234 101.0
60.7923 613.0
60.8613 187.0
60.9302 80.0
60.9991 26.0
61.0681 22.0
61.137 27.0
61.2059 18.0
61.2749 27.0
61.3438 7.0
61.4127 14.0
61.4817 16.0
61.5506 13.0
61.6195 17.0
61.6885 15.0
61.7574 16.0
61.8263 22.0
61.8953 11.0
61.9642 8.0
62.0331 14.0
62.1021 15.0
62.171 16.0
62.2399 19.0
62.3089 17.0
62.3778 19.0
62.4467 17.0
62.5157 13.0
62.5846 15.0
62.6535 23.0
62.7225 20.0
62.7914 23.0
62.8603 17.0
62.9293 20.0
62.9982 39.0
63.0671 19.0
63.1361 24.0
63.205 24.0
63.2739 32.0
63.3429 31.0
63.4118 23.0
63.4807 33.0
63.5497 38.0
63.6186 42.0
63.6875 36.0
63.7565 45.0
63.8254 41.0
63.8943 67.0
63.9633 67.0
64.0322 94.0
64.1011 86.0
64.1701 99.0
64.239 109.0
64.3079 173.0
64.3769 203.0
64.4458 261.0
64.5148 311.0
64.5837 415.0
64.6526 570.0
64.7216 593.0
64.7905 516.0
64.8594 473.0
64.9284 359.0
64.9973 243.0
65.0662 160.0
65.1352 110.0
65.2041 79.0
65.273 74.0
65.342 62.0
65.4109 47.0
65.4798 69.0
65.5488 50.0
65.6177 52.0
65.6866 47.0
65.7556 46.0
65.8245 48.0
65.8934 65.0
65.9624 62.0
66.0313 56.0
66.1002 53.0
66.1692 68.0
66.2381 60.0
66.307 73.0
66.376 68.0
66.4449 83.0
66.5138 91.0
66.5828 91.0
66.6517 104.0
66.7206 107.0
66.7896 87.0
66.8585 101.0
66.9274 141.0
66.9964 131.0
67.0653 131.0
67.1342 169.0
67.2032 191.0
67.2721 192.0
67.341 195.0
67.41 274.0
67.4789 339.0
67.5478 345.0
67.6168 401.0
67.6857 635.0
67.7546 1245.0
67.8236 1439.0
67.8925 1499.0
67.9615 2545.0
68.0304 8650.0
68.0993 141986.0
68.1683 19965.0
68.2372 9781.0
68.3061 75495.0
68.3751 7007.0
68.444 2145.0
68.5129 1255.0
68.5819 932.0
68.6508 684.0
68.7197 602.0
68.7887 453.0
68.8576 385.0
68.9265 322.0
68.9955 300.0
69.0644 197.0
69.1333 195.0
69.2023 184.0
69.2712 146.0
69.3401 139.0
69.4091 143.0
69.478 116.0
69.5469 118.0
69.6159 100.0
69.6848 97.0
69.7537 95.0
69.8227 69.0
69.8916 56.0
69.9605 49.0
70.0295 54.0
70.0984 54.0
70.1673 62.0
70.2363 46.0
70.3052 47.0
70.3741 45.0
70.4431 41.0
70.512 30.0
70.5809 24.0
70.6499 20.0
70.7188 22.0
70.7877 18.0
70.8567 31.0
70.9256 26.0
70.9945 31.0
71.0635 30.0
71.1324 18.0
71.2013 20.0
71.2703 18.0
71.3392 12.0
71.4082 22.0
71.4771 27.0
71.546 22.0
71.615 22.0
71.6839 19.0
71.7528 19.0
71.8218 18.0
71.8907 19.0
71.9596 19.0
72.0286 14.0
72.0975 17.0
72.1664 14.0
72.2354 19.0
72.3043 13.0
72.3732 15.0
72.4422 19.0
72.5111 15.0
72.58 18.0
72.649 15.0
72.7179 12.0
72.7868 16.0
72.8558 19.0
72.9247 18.0
72.9936 13.0
73.0626 20.0
73.1315 10.0
73.2004 10.0
73.2694 13.0
73.3383 19.0
73.4072 12.0
73.4762 12.0
73.5451 16.0
73.614 10.0
73.683 15.0
73.7519 12.0
73.8208 12.0
73.8898 17.0
73.9587 8.0
74.0276 10.0
74.0966 14.0
74.1655 11.0
74.2344 9.0
74.3034 6.0
74.3723 4.0
74.4412 13.0
74.5102 12.0
74.5791 8.0
74.648 14.0
74.717 15.0
74.7859 11.0
74.8548 10.0
74.9238 10.0
74.9927 8.0
74.9976 11.0