File: data/W6716/XRD_2ThetaOmega/phi180scan_2th-om_m_Cr2O3_55-75deg_PIXscan_4min_W6716_7.xy
55.0019 2.0
55.0708 11.0
55.1397 7.0
55.2087 8.0
55.2776 13.0
55.3465 15.0
55.4155 12.0
55.4844 11.0
55.5533 8.0
55.6223 8.0
55.6912 11.0
55.7601 9.0
55.8291 8.0
55.898 11.0
55.9669 6.0
56.0359 10.0
56.1048 8.0
56.1737 9.0
56.2427 7.0
56.3116 10.0
56.3805 10.0
56.4495 11.0
56.5184 8.0
56.5873 6.0
56.6563 14.0
56.7252 8.0
56.7941 11.0
56.8631 4.0
56.932 10.0
57.0009 13.0
57.0699 5.0
57.1388 7.0
57.2077 9.0
57.2767 15.0
57.3456 12.0
57.4146 10.0
57.4835 15.0
57.5524 6.0
57.6214 14.0
57.6903 16.0
57.7592 14.0
57.8282 16.0
57.8971 8.0
57.966 8.0
58.035 18.0
58.1039 10.0
58.1728 11.0
58.2418 12.0
58.3107 10.0
58.3796 7.0
58.4486 14.0
58.5175 14.0
58.5864 7.0
58.6554 8.0
58.7243 6.0
58.7932 6.0
58.8622 13.0
58.9311 8.0
59 7.0
59.069 7.0
59.1379 7.0
59.2068 5.0
59.2758 10.0
59.3447 10.0
59.4136 7.0
59.4826 9.0
59.5515 9.0
59.6204 13.0
59.6894 14.0
59.7583 15.0
59.8272 12.0
59.8962 9.0
59.9651 12.0
60.034 8.0
60.103 6.0
60.1719 11.0
60.2408 13.0
60.3098 17.0
60.3787 18.0
60.4476 16.0
60.5166 17.0
60.5855 16.0
60.6544 23.0
60.7234 94.0
60.7923 696.0
60.8613 215.0
60.9302 78.0
60.9991 39.0
61.0681 19.0
61.137 33.0
61.2059 23.0
61.2749 19.0
61.3438 23.0
61.4127 23.0
61.4817 22.0
61.5506 21.0
61.6195 19.0
61.6885 14.0
61.7574 17.0
61.8263 12.0
61.8953 22.0
61.9642 25.0
62.0331 19.0
62.1021 16.0
62.171 18.0
62.2399 21.0
62.3089 15.0
62.3778 14.0
62.4467 20.0
62.5157 25.0
62.5846 28.0
62.6535 29.0
62.7225 24.0
62.7914 21.0
62.8603 18.0
62.9293 23.0
62.9982 18.0
63.0671 30.0
63.1361 28.0
63.205 26.0
63.2739 33.0
63.3429 25.0
63.4118 28.0
63.4807 34.0
63.5497 28.0
63.6186 52.0
63.6875 42.0
63.7565 53.0
63.8254 51.0
63.8943 60.0
63.9633 76.0
64.0322 70.0
64.1011 68.0
64.1701 86.0
64.239 106.0
64.3079 116.0
64.3769 162.0
64.4458 182.0
64.5148 276.0
64.5837 334.0
64.6526 434.0
64.7216 481.0
64.7905 441.0
64.8594 357.0
64.9284 292.0
64.9973 221.0
65.0662 151.0
65.1352 110.0
65.2041 97.0
65.273 76.0
65.342 82.0
65.4109 56.0
65.4798 63.0
65.5488 49.0
65.6177 58.0
65.6866 52.0
65.7556 65.0
65.8245 47.0
65.8934 54.0
65.9624 49.0
66.0313 55.0
66.1002 52.0
66.1692 73.0
66.2381 51.0
66.307 69.0
66.376 71.0
66.4449 77.0
66.5138 78.0
66.5828 85.0
66.6517 89.0
66.7206 96.0
66.7896 113.0
66.8585 111.0
66.9274 121.0
66.9964 134.0
67.0653 124.0
67.1342 153.0
67.2032 166.0
67.2721 180.0
67.341 176.0
67.41 207.0
67.4789 295.0
67.5478 351.0
67.6168 398.0
67.6857 617.0
67.7546 1140.0
67.8236 1481.0
67.8925 1553.0
67.9615 2561.0
68.0304 7489.0
68.0993 134514.0
68.1683 26130.0
68.2372 8987.0
68.3061 78490.0
68.3751 8840.0
68.444 2330.0
68.5129 1312.0
68.5819 872.0
68.6508 722.0
68.7197 582.0
68.7887 451.0
68.8576 380.0
68.9265 336.0
68.9955 314.0
69.0644 296.0
69.1333 193.0
69.2023 174.0
69.2712 173.0
69.3401 151.0
69.4091 120.0
69.478 132.0
69.5469 114.0
69.6159 98.0
69.6848 74.0
69.7537 78.0
69.8227 68.0
69.8916 75.0
69.9605 68.0
70.0295 55.0
70.0984 37.0
70.1673 40.0
70.2363 44.0
70.3052 49.0
70.3741 39.0
70.4431 35.0
70.512 37.0
70.5809 40.0
70.6499 32.0
70.7188 23.0
70.7877 25.0
70.8567 31.0
70.9256 26.0
70.9945 20.0
71.0635 33.0
71.1324 23.0
71.2013 31.0
71.2703 17.0
71.3392 23.0
71.4082 28.0
71.4771 20.0
71.546 18.0
71.615 20.0
71.6839 16.0
71.7528 23.0
71.8218 21.0
71.8907 16.0
71.9596 16.0
72.0286 23.0
72.0975 16.0
72.1664 20.0
72.2354 27.0
72.3043 11.0
72.3732 20.0
72.4422 15.0
72.5111 21.0
72.58 11.0
72.649 21.0
72.7179 11.0
72.7868 12.0
72.8558 16.0
72.9247 19.0
72.9936 15.0
73.0626 10.0
73.1315 16.0
73.2004 15.0
73.2694 15.0
73.3383 17.0
73.4072 11.0
73.4762 13.0
73.5451 15.0
73.614 11.0
73.683 12.0
73.7519 15.0
73.8208 8.0
73.8898 11.0
73.9587 18.0
74.0276 6.0
74.0966 14.0
74.1655 10.0
74.2344 8.0
74.3034 13.0
74.3723 12.0
74.4412 11.0
74.5102 9.0
74.5791 15.0
74.648 8.0
74.717 15.0
74.7859 18.0
74.8548 11.0
74.9238 8.0
74.9927 9.0
74.9976 16.0