File: data/W6716/XRD_2ThetaOmega/phi270scan_2th-om_m_Cr2O3_55-75deg_PIXscan_4min_W6716_8.xy
55.0019 12.0
55.0708 14.0
55.1397 9.0
55.2087 9.0
55.2776 11.0
55.3465 5.0
55.4155 12.0
55.4844 8.0
55.5533 13.0
55.6223 9.0
55.6912 9.0
55.7601 12.0
55.8291 13.0
55.898 12.0
55.9669 7.0
56.0359 9.0
56.1048 10.0
56.1737 12.0
56.2427 14.0
56.3116 12.0
56.3805 13.0
56.4495 6.0
56.5184 9.0
56.5873 9.0
56.6563 18.0
56.7252 11.0
56.7941 10.0
56.8631 17.0
56.932 7.0
57.0009 5.0
57.0699 9.0
57.1388 8.0
57.2077 7.0
57.2767 7.0
57.3456 6.0
57.4146 16.0
57.4835 13.0
57.5524 15.0
57.6214 20.0
57.6903 22.0
57.7592 25.0
57.8282 25.0
57.8971 25.0
57.966 18.0
58.035 12.0
58.1039 17.0
58.1728 9.0
58.2418 8.0
58.3107 17.0
58.3796 7.0
58.4486 6.0
58.5175 21.0
58.5864 9.0
58.6554 7.0
58.7243 14.0
58.7932 10.0
58.8622 9.0
58.9311 17.0
59 17.0
59.069 13.0
59.1379 15.0
59.2068 13.0
59.2758 10.0
59.3447 8.0
59.4136 21.0
59.4826 8.0
59.5515 12.0
59.6204 6.0
59.6894 10.0
59.7583 12.0
59.8272 10.0
59.8962 7.0
59.9651 18.0
60.034 12.0
60.103 15.0
60.1719 19.0
60.2408 22.0
60.3098 23.0
60.3787 16.0
60.4476 19.0
60.5166 20.0
60.5855 19.0
60.6544 24.0
60.7234 94.0
60.7923 675.0
60.8613 214.0
60.9302 65.0
60.9991 36.0
61.0681 26.0
61.137 27.0
61.2059 19.0
61.2749 19.0
61.3438 19.0
61.4127 16.0
61.4817 30.0
61.5506 12.0
61.6195 11.0
61.6885 22.0
61.7574 23.0
61.8263 19.0
61.8953 15.0
61.9642 22.0
62.0331 21.0
62.1021 22.0
62.171 16.0
62.2399 15.0
62.3089 26.0
62.3778 13.0
62.4467 31.0
62.5157 30.0
62.5846 29.0
62.6535 30.0
62.7225 32.0
62.7914 37.0
62.8603 24.0
62.9293 37.0
62.9982 22.0
63.0671 32.0
63.1361 40.0
63.205 39.0
63.2739 39.0
63.3429 35.0
63.4118 48.0
63.4807 47.0
63.5497 58.0
63.6186 48.0
63.6875 65.0
63.7565 62.0
63.8254 74.0
63.8943 80.0
63.9633 85.0
64.0322 98.0
64.1011 137.0
64.1701 169.0
64.239 203.0
64.3079 297.0
64.3769 409.0
64.4458 608.0
64.5148 916.0
64.5837 1528.0
64.6526 2387.0
64.7216 2487.0
64.7905 2144.0
64.8594 1875.0
64.9284 1323.0
64.9973 767.0
65.0662 478.0
65.1352 268.0
65.2041 203.0
65.273 144.0
65.342 120.0
65.4109 100.0
65.4798 78.0
65.5488 86.0
65.6177 70.0
65.6866 57.0
65.7556 63.0
65.8245 61.0
65.8934 72.0
65.9624 64.0
66.0313 60.0
66.1002 72.0
66.1692 59.0
66.2381 80.0
66.307 82.0
66.376 82.0
66.4449 85.0
66.5138 86.0
66.5828 106.0
66.6517 88.0
66.7206 116.0
66.7896 112.0
66.8585 120.0
66.9274 161.0
66.9964 157.0
67.0653 170.0
67.1342 139.0
67.2032 174.0
67.2721 170.0
67.341 275.0
67.41 274.0
67.4789 326.0
67.5478 313.0
67.6168 429.0
67.6857 630.0
67.7546 1180.0
67.8236 1406.0
67.8925 1456.0
67.9615 2550.0
68.0304 7850.0
68.0993 137246.0
68.1683 21948.0
68.2372 9313.0
68.3061 75683.0
68.3751 7519.0
68.444 2171.0
68.5129 1260.0
68.5819 856.0
68.6508 656.0
68.7197 541.0
68.7887 401.0
68.8576 350.0
68.9265 323.0
68.9955 275.0
69.0644 260.0
69.1333 193.0
69.2023 149.0
69.2712 152.0
69.3401 140.0
69.4091 124.0
69.478 101.0
69.5469 98.0
69.6159 87.0
69.6848 94.0
69.7537 71.0
69.8227 81.0
69.8916 56.0
69.9605 44.0
70.0295 65.0
70.0984 47.0
70.1673 49.0
70.2363 38.0
70.3052 44.0
70.3741 36.0
70.4431 39.0
70.512 32.0
70.5809 27.0
70.6499 38.0
70.7188 28.0
70.7877 23.0
70.8567 34.0
70.9256 25.0
70.9945 25.0
71.0635 26.0
71.1324 30.0
71.2013 22.0
71.2703 23.0
71.3392 13.0
71.4082 22.0
71.4771 25.0
71.546 21.0
71.615 13.0
71.6839 18.0
71.7528 23.0
71.8218 16.0
71.8907 22.0
71.9596 22.0
72.0286 11.0
72.0975 20.0
72.1664 18.0
72.2354 20.0
72.3043 20.0
72.3732 18.0
72.4422 15.0
72.5111 12.0
72.58 13.0
72.649 16.0
72.7179 17.0
72.7868 18.0
72.8558 16.0
72.9247 19.0
72.9936 18.0
73.0626 10.0
73.1315 16.0
73.2004 10.0
73.2694 15.0
73.3383 12.0
73.4072 13.0
73.4762 13.0
73.5451 19.0
73.614 12.0
73.683 10.0
73.7519 8.0
73.8208 16.0
73.8898 10.0
73.9587 11.0
74.0276 13.0
74.0966 16.0
74.1655 12.0
74.2344 12.0
74.3034 18.0
74.3723 7.0
74.4412 11.0
74.5102 9.0
74.5791 16.0
74.648 14.0
74.717 10.0
74.7859 18.0
74.8548 8.0
74.9238 11.0
74.9927 8.0
74.9976 9.0