File: data/W6716/XRD_2ThetaOmega/phi90scan_2th-om_m_Cr2O3_55-75deg_PIXscan_4min_W6716_6.xy
55.0019 11.0
55.0708 11.0
55.1397 9.0
55.2087 13.0
55.2776 9.0
55.3465 14.0
55.4155 9.0
55.4844 11.0
55.5533 15.0
55.6223 8.0
55.6912 10.0
55.7601 11.0
55.8291 14.0
55.898 9.0
55.9669 12.0
56.0359 11.0
56.1048 15.0
56.1737 13.0
56.2427 17.0
56.3116 17.0
56.3805 12.0
56.4495 10.0
56.5184 14.0
56.5873 13.0
56.6563 12.0
56.7252 10.0
56.7941 18.0
56.8631 9.0
56.932 5.0
57.0009 12.0
57.0699 9.0
57.1388 5.0
57.2077 15.0
57.2767 5.0
57.3456 15.0
57.4146 12.0
57.4835 13.0
57.5524 7.0
57.6214 17.0
57.6903 19.0
57.7592 17.0
57.8282 25.0
57.8971 31.0
57.966 18.0
58.035 26.0
58.1039 12.0
58.1728 15.0
58.2418 15.0
58.3107 15.0
58.3796 8.0
58.4486 12.0
58.5175 12.0
58.5864 12.0
58.6554 11.0
58.7243 9.0
58.7932 11.0
58.8622 11.0
58.9311 9.0
59 15.0
59.069 12.0
59.1379 6.0
59.2068 4.0
59.2758 14.0
59.3447 8.0
59.4136 9.0
59.4826 9.0
59.5515 10.0
59.6204 12.0
59.6894 15.0
59.7583 7.0
59.8272 10.0
59.8962 15.0
59.9651 16.0
60.034 12.0
60.103 14.0
60.1719 16.0
60.2408 15.0
60.3098 16.0
60.3787 20.0
60.4476 15.0
60.5166 23.0
60.5855 23.0
60.6544 36.0
60.7234 86.0
60.7923 611.0
60.8613 214.0
60.9302 61.0
60.9991 40.0
61.0681 31.0
61.137 24.0
61.2059 17.0
61.2749 24.0
61.3438 15.0
61.4127 21.0
61.4817 19.0
61.5506 16.0
61.6195 17.0
61.6885 13.0
61.7574 15.0
61.8263 14.0
61.8953 29.0
61.9642 15.0
62.0331 19.0
62.1021 17.0
62.171 26.0
62.2399 18.0
62.3089 16.0
62.3778 24.0
62.4467 22.0
62.5157 26.0
62.5846 24.0
62.6535 31.0
62.7225 23.0
62.7914 34.0
62.8603 33.0
62.9293 33.0
62.9982 32.0
63.0671 45.0
63.1361 31.0
63.205 39.0
63.2739 35.0
63.3429 33.0
63.4118 34.0
63.4807 41.0
63.5497 29.0
63.6186 36.0
63.6875 49.0
63.7565 50.0
63.8254 97.0
63.8943 65.0
63.9633 107.0
64.0322 95.0
64.1011 141.0
64.1701 157.0
64.239 211.0
64.3079 281.0
64.3769 400.0
64.4458 509.0
64.5148 878.0
64.5837 1486.0
64.6526 2185.0
64.7216 2361.0
64.7905 2025.0
64.8594 1721.0
64.9284 1246.0
64.9973 727.0
65.0662 417.0
65.1352 264.0
65.2041 197.0
65.273 132.0
65.342 124.0
65.4109 109.0
65.4798 74.0
65.5488 94.0
65.6177 71.0
65.6866 60.0
65.7556 56.0
65.8245 58.0
65.8934 48.0
65.9624 51.0
66.0313 53.0
66.1002 59.0
66.1692 67.0
66.2381 75.0
66.307 68.0
66.376 81.0
66.4449 65.0
66.5138 68.0
66.5828 86.0
66.6517 92.0
66.7206 106.0
66.7896 118.0
66.8585 121.0
66.9274 113.0
66.9964 115.0
67.0653 129.0
67.1342 172.0
67.2032 178.0
67.2721 194.0
67.341 200.0
67.41 267.0
67.4789 303.0
67.5478 383.0
67.6168 426.0
67.6857 650.0
67.7546 1137.0
67.8236 1375.0
67.8925 1467.0
67.9615 2501.0
68.0304 7703.0
68.0993 134797.0
68.1683 21789.0
68.2372 9073.0
68.3061 75958.0
68.3751 7642.0
68.444 2221.0
68.5129 1285.0
68.5819 885.0
68.6508 657.0
68.7197 555.0
68.7887 497.0
68.8576 405.0
68.9265 361.0
68.9955 287.0
69.0644 266.0
69.1333 271.0
69.2023 199.0
69.2712 186.0
69.3401 141.0
69.4091 139.0
69.478 119.0
69.5469 112.0
69.6159 116.0
69.6848 101.0
69.7537 90.0
69.8227 76.0
69.8916 62.0
69.9605 62.0
70.0295 61.0
70.0984 52.0
70.1673 48.0
70.2363 36.0
70.3052 50.0
70.3741 43.0
70.4431 49.0
70.512 36.0
70.5809 41.0
70.6499 39.0
70.7188 32.0
70.7877 27.0
70.8567 31.0
70.9256 38.0
70.9945 34.0
71.0635 25.0
71.1324 32.0
71.2013 22.0
71.2703 29.0
71.3392 26.0
71.4082 19.0
71.4771 21.0
71.546 19.0
71.615 18.0
71.6839 19.0
71.7528 20.0
71.8218 23.0
71.8907 23.0
71.9596 22.0
72.0286 23.0
72.0975 19.0
72.1664 27.0
72.2354 18.0
72.3043 12.0
72.3732 13.0
72.4422 19.0
72.5111 21.0
72.58 13.0
72.649 18.0
72.7179 18.0
72.7868 18.0
72.8558 29.0
72.9247 16.0
72.9936 20.0
73.0626 18.0
73.1315 11.0
73.2004 13.0
73.2694 19.0
73.3383 14.0
73.4072 9.0
73.4762 17.0
73.5451 11.0
73.614 15.0
73.683 17.0
73.7519 11.0
73.8208 8.0
73.8898 12.0
73.9587 12.0
74.0276 13.0
74.0966 11.0
74.1655 15.0
74.2344 7.0
74.3034 16.0
74.3723 11.0
74.4412 13.0
74.5102 9.0
74.5791 8.0
74.648 11.0
74.717 13.0
74.7859 14.0
74.8548 16.0
74.9238 15.0
74.9927 15.0
74.9976 13.0