File: data/W6716/XRD_2ThetaOmega/W6716_absolute_2th-om_10-100deg.xy
10.0045 19.0
10.3048 23.0
10.6052 18.0
10.9055 19.0
11.2059 22.0
11.5062 28.0
11.8066 15.0
12.1069 20.0
12.4073 23.0
12.7077 13.0
13.008 14.0
13.3084 17.0
13.6087 15.0
13.9091 23.0
14.2094 19.0
14.5098 12.0
14.8101 18.0
15.1105 15.0
15.4109 13.0
15.7112 15.0
16.0116 14.0
16.3119 11.0
16.6123 13.0
16.9126 11.0
17.213 10.0
17.5133 9.0
17.8137 14.0
18.1141 11.0
18.4144 15.0
18.7148 7.0
19.0151 8.0
19.3155 13.0
19.6158 4.0
19.9162 13.0
20.2165 8.0
20.5169 7.0
20.8172 11.0
21.1176 7.0
21.418 13.0
21.7183 8.0
22.0187 11.0
22.319 12.0
22.6194 5.0
22.9197 13.0
23.2201 7.0
23.5204 6.0
23.8208 5.0
24.1212 4.0
24.4215 10.0
24.7219 5.0
25.0222 5.0
25.3226 6.0
25.6229 11.0
25.9233 5.0
26.2236 6.0
26.524 7.0
26.8244 8.0
27.1247 2.0
27.4251 5.0
27.7254 5.0
28.0258 5.0
28.3261 4.0
28.6265 6.0
28.9268 6.0
29.2272 4.0
29.5276 3.0
29.8279 5.0
30.1283 2.0
30.4286 5.0
30.729 5.0
31.0293 1.0
31.3297 2.0
31.63 5.0
31.9304 3.0
32.2307 10.0
32.5311 2.0
32.8315 5.0
33.1318 1.0
33.4322 4.0
33.7325 1.0
34.0329 0.0
34.3332 1.0
34.6336 3.0
34.9339 8.0
35.2343 2.0
35.5347 6.0
35.835 3.0
36.1354 2.0
36.4357 5.0
36.7361 1.0
37.0364 3.0
37.3368 3.0
37.6371 1.0
37.9375 5.0
38.2379 7.0
38.5382 1.0
38.8386 3.0
39.1389 4.0
39.4393 2.0
39.7396 3.0
40.04 1.0
40.3403 1.0
40.6407 1.0
40.941 1.0
41.2414 4.0
41.5418 2.0
41.8421 7.0
42.1425 1.0
42.4428 1.0
42.7432 3.0
43.0435 1.0
43.3439 0.0
43.6442 1.0
43.9446 2.0
44.245 5.0
44.5453 5.0
44.8457 1.0
45.146 2.0
45.4464 4.0
45.7467 3.0
46.0471 0.0
46.3474 3.0
46.6478 2.0
46.9482 1.0
47.2485 3.0
47.5489 0.0
47.8492 1.0
48.1496 0.0
48.4499 3.0
48.7503 2.0
49.0506 0.0
49.351 2.0
49.6514 1.0
49.9517 2.0
50.2521 4.0
50.5524 3.0
50.8528 1.0
51.1531 1.0
51.4535 5.0
51.7538 1.0
52.0542 3.0
52.3545 4.0
52.6549 3.0
52.9553 3.0
53.2556 3.0
53.556 3.0
53.8563 8.0
54.1567 2.0
54.457 4.0
54.7574 2.0
55.0577 3.0
55.3581 4.0
55.6585 8.0
55.9588 2.0
56.2592 4.0
56.5595 4.0
56.8599 3.0
57.1602 3.0
57.4606 7.0
57.7609 4.0
58.0613 4.0
58.3617 4.0
58.662 12.0
58.9624 2.0
59.2627 3.0
59.5631 5.0
59.8634 2.0
60.1638 2.0
60.4641 8.0
60.7645 25.0
61.0648 5.0
61.3652 8.0
61.6656 6.0
61.9659 6.0
62.2663 5.0
62.5666 2.0
62.867 8.0
63.1673 7.0
63.4677 8.0
63.768 15.0
64.0684 22.0
64.3688 102.0
64.6691 590.0
64.9695 529.0
65.2698 70.0
65.5702 43.0
65.8705 18.0
66.1709 21.0
66.4712 37.0
66.7716 35.0
67.072 69.0
67.3723 69.0
67.6727 125.0
67.973 513.0
68.2734 2625.0
68.5737 314.0
68.8741 103.0
69.1744 74.0
69.4748 40.0
69.7752 26.0
70.0755 15.0
70.3759 13.0
70.6762 6.0
70.9766 10.0
71.2769 6.0
71.5773 3.0
71.8776 7.0
72.178 1.0
72.4783 5.0
72.7787 4.0
73.0791 2.0
73.3794 7.0
73.6798 3.0
73.9801 4.0
74.2805 1.0
74.5808 1.0
74.8812 1.0
75.1815 3.0
75.4819 4.0
75.7823 3.0
76.0826 2.0
76.383 4.0
76.6833 6.0
76.9837 4.0
77.284 2.0
77.5844 3.0
77.8847 3.0
78.1851 3.0
78.4855 1.0
78.7858 2.0
79.0862 5.0
79.3865 3.0
79.6869 1.0
79.9872 1.0
80.2876 1.0
80.5879 0.0
80.8883 1.0
81.1886 3.0
81.489 5.0
81.7894 0.0
82.0897 3.0
82.3901 3.0
82.6904 4.0
82.9908 0.0
83.2911 3.0
83.5915 3.0
83.8918 0.0
84.1922 1.0
84.4926 2.0
84.7929 1.0
85.0933 1.0
85.3936 4.0
85.694 1.0
85.9943 2.0
86.2947 2.0
86.595 0.0
86.8954 3.0
87.1958 2.0
87.4961 3.0
87.7965 2.0
88.0968 6.0
88.3972 1.0
88.6975 1.0
88.9979 1.0
89.2982 1.0
89.5986 0.0
89.8989 4.0
90.1993 2.0
90.4997 3.0
90.8 1.0
91.1004 0.0
91.4007 1.0
91.7011 3.0
92.0014 1.0
92.3018 0.0
92.6021 0.0
92.9025 4.0
93.2029 2.0
93.5032 0.0
93.8036 0.0
94.1039 0.0
94.4043 6.0
94.7046 0.0
95.005 0.0
95.3053 0.0
95.6057 2.0
95.9061 3.0
96.2064 3.0
96.5068 2.0
96.8071 3.0
97.1075 0.0
97.4078 3.0
97.7082 2.0
98.0085 0.0
98.3089 1.0
98.6093 1.0
98.9096 0.0
99.21 2.0
99.5103 0.0
99.8107 4.0
99.9978 3.0