File: data/W6716/XRD_2ThetaOmega/W6716_absolute_2th-om_58-72deg-20min_2.xy
58.0028 315.0
58.0496 290.0
58.0964 293.0
58.1432 271.0
58.1899 285.0
58.2367 274.0
58.2835 284.0
58.3303 256.0
58.377 276.0
58.4238 294.0
58.4706 255.0
58.5174 303.0
58.5642 279.0
58.6109 265.0
58.6577 292.0
58.7045 283.0
58.7513 256.0
58.798 255.0
58.8448 278.0
58.8916 281.0
58.9384 264.0
58.9851 281.0
59.0319 282.0
59.0787 264.0
59.1255 284.0
59.1722 302.0
59.219 279.0
59.2658 299.0
59.3126 272.0
59.3594 271.0
59.4061 277.0
59.4529 271.0
59.4997 258.0
59.5465 313.0
59.5932 269.0
59.64 268.0
59.6868 281.0
59.7336 232.0
59.7803 262.0
59.8271 267.0
59.8739 273.0
59.9207 297.0
59.9674 275.0
60.0142 311.0
60.061 226.0
60.1078 293.0
60.1546 292.0
60.2013 282.0
60.2481 279.0
60.2949 315.0
60.3417 306.0
60.3884 280.0
60.4352 310.0
60.482 310.0
60.5288 303.0
60.5755 323.0
60.6223 308.0
60.6691 365.0
60.7159 419.0
60.7627 821.0
60.8094 2309.0
60.8562 1908.0
60.903 1272.0
60.9498 712.0
60.9965 460.0
61.0433 412.0
61.0901 352.0
61.1369 352.0
61.1836 343.0
61.2304 314.0
61.2772 331.0
61.324 330.0
61.3707 319.0
61.4175 339.0
61.4643 335.0
61.5111 364.0
61.5579 437.0
61.6046 447.0
61.6514 463.0
61.6982 455.0
61.745 417.0
61.7917 418.0
61.8385 412.0
61.8853 374.0
61.9321 361.0
61.9788 375.0
62.0256 309.0
62.0724 358.0
62.1192 313.0
62.166 385.0
62.2127 346.0
62.2595 361.0
62.3063 360.0
62.3531 334.0
62.3998 315.0
62.4466 356.0
62.4934 366.0
62.5402 291.0
62.5869 337.0
62.6337 313.0
62.6805 345.0
62.7273 346.0
62.774 359.0
62.8208 361.0
62.8676 352.0
62.9144 374.0
62.9612 339.0
63.0079 342.0
63.0547 358.0
63.1015 378.0
63.1483 350.0
63.195 369.0
63.2418 389.0
63.2886 389.0
63.3354 365.0
63.3821 439.0
63.4289 399.0
63.4757 417.0
63.5225 436.0
63.5693 433.0
63.616 396.0
63.6628 456.0
63.7096 501.0
63.7564 519.0
63.8031 522.0
63.8499 530.0
63.8967 598.0
63.9435 649.0
63.9902 668.0
64.037 826.0
64.0838 866.0
64.1306 998.0
64.1773 1097.0
64.2241 1331.0
64.2709 1573.0
64.3177 1956.0
64.3645 2458.0
64.4112 3124.0
64.458 4246.0
64.5048 5839.0
64.5516 8762.0
64.5983 12661.0
64.6451 17475.0
64.6919 19930.0
64.7387 18793.0
64.7854 16561.0
64.8322 15622.0
64.879 14523.0
64.9258 14220.0
64.9725 10829.0
65.0193 6637.0
65.0661 4573.0
65.1129 3373.0
65.1597 2694.0
65.2064 2181.0
65.2532 1806.0
65.3 1554.0
65.3468 1356.0
65.3935 1300.0
65.4403 1393.0
65.4871 1704.0
65.5339 1263.0
65.5806 1015.0
65.6274 838.0
65.6742 737.0
65.721 718.0
65.7678 658.0
65.8145 669.0
65.8613 652.0
65.9081 621.0
65.9549 625.0
66.0016 636.0
66.0484 579.0
66.0952 634.0
66.142 663.0
66.1887 652.0
66.2355 628.0
66.2823 633.0
66.3291 638.0
66.3758 684.0
66.4226 662.0
66.4694 682.0
66.5162 717.0
66.563 708.0
66.6097 720.0
66.6565 733.0
66.7033 787.0
66.7501 801.0
66.7968 795.0
66.8436 872.0
66.8904 946.0
66.9372 956.0
66.9839 1003.0
67.0307 987.0
67.0775 1071.0
67.1243 1138.0
67.1711 1110.0
67.2178 1239.0
67.2646 1260.0
67.3114 1344.0
67.3582 1403.0
67.4049 1590.0
67.4517 1568.0
67.4985 1749.0
67.5453 1854.0
67.592 1973.0
67.6388 2283.0
67.6856 2946.0
67.7324 3928.0
67.7791 5813.0
67.8259 7012.0
67.8727 7079.0
67.9195 7273.0
67.9663 9612.0
68.013 16055.0
68.0598 36591.0
68.1066 237624.0
68.1534 685075.0
68.2001 118372.0
68.2469 39796.0
68.2937 103587.0
68.3405 351182.0
68.3872 87550.0
68.434 20360.0
68.4808 10973.0
68.5276 7649.0
68.5743 5747.0
68.6211 4748.0
68.6679 3862.0
68.7147 3354.0
68.7615 3043.0
68.8082 2653.0
68.855 2299.0
68.9018 2188.0
68.9486 2038.0
68.9953 1959.0
69.0421 1877.0
69.0889 1768.0
69.1357 1579.0
69.1824 1616.0
69.2292 1420.0
69.276 1417.0
69.3228 1343.0
69.3696 1258.0
69.4163 1184.0
69.4631 1112.0
69.5099 1059.0
69.5567 966.0
69.6034 1013.0
69.6502 944.0
69.697 943.0
69.7438 926.0
69.7905 889.0
69.8373 794.0
69.8841 804.0
69.9309 798.0
69.9776 701.0
70.0244 657.0
70.0712 637.0
70.118 671.0
70.1648 653.0
70.2115 570.0
70.2583 621.0
70.3051 556.0
70.3519 569.0
70.3986 502.0
70.4454 484.0
70.4922 496.0
70.539 485.0
70.5857 537.0
70.6325 491.0
70.6793 454.0
70.7261 446.0
70.7729 457.0
70.8196 450.0
70.8664 461.0
70.9132 420.0
70.96 427.0
71.0067 371.0
71.0535 451.0
71.1003 438.0
71.1471 384.0
71.1938 394.0
71.2406 376.0
71.2874 394.0
71.3342 390.0
71.3809 392.0
71.4277 362.0
71.4745 365.0
71.5213 391.0
71.5681 365.0
71.6148 351.0
71.6616 375.0
71.7084 397.0
71.7552 349.0
71.8019 334.0
71.8487 345.0
71.8955 360.0
71.9423 335.0
71.989 340.0
71.9989 327.0