File: data/W6715/XRD_2ThetaOmega/phi0scan_2th-om_m_Cr2O3_55-75deg_PIXscan_4min_W6715_1.xy
55.0019 14.0
55.0708 15.0
55.1397 15.0
55.2087 17.0
55.2776 18.0
55.3465 11.0
55.4155 16.0
55.4844 10.0
55.5533 15.0
55.6223 13.0
55.6912 15.0
55.7601 11.0
55.8291 15.0
55.898 13.0
55.9669 10.0
56.0359 14.0
56.1048 16.0
56.1737 13.0
56.2427 13.0
56.3116 14.0
56.3805 9.0
56.4495 16.0
56.5184 17.0
56.5873 10.0
56.6563 19.0
56.7252 20.0
56.7941 12.0
56.8631 16.0
56.932 11.0
57.0009 11.0
57.0699 12.0
57.1388 16.0
57.2077 16.0
57.2767 18.0
57.3456 18.0
57.4146 29.0
57.4835 16.0
57.5524 17.0
57.6214 25.0
57.6903 18.0
57.7592 11.0
57.8282 14.0
57.8971 15.0
57.966 15.0
58.035 5.0
58.1039 8.0
58.1728 13.0
58.2418 11.0
58.3107 13.0
58.3796 9.0
58.4486 13.0
58.5175 9.0
58.5864 14.0
58.6554 11.0
58.7243 12.0
58.7932 6.0
58.8622 11.0
58.9311 10.0
59 6.0
59.069 12.0
59.1379 20.0
59.2068 11.0
59.2758 15.0
59.3447 14.0
59.4136 13.0
59.4826 15.0
59.5515 12.0
59.6204 11.0
59.6894 19.0
59.7583 17.0
59.8272 16.0
59.8962 6.0
59.9651 12.0
60.034 14.0
60.103 20.0
60.1719 8.0
60.2408 20.0
60.3098 21.0
60.3787 21.0
60.4476 20.0
60.5166 20.0
60.5855 16.0
60.6544 31.0
60.7234 132.0
60.7923 673.0
60.8613 218.0
60.9302 62.0
60.9991 31.0
61.0681 27.0
61.137 28.0
61.2059 25.0
61.2749 22.0
61.3438 22.0
61.4127 21.0
61.4817 22.0
61.5506 12.0
61.6195 32.0
61.6885 24.0
61.7574 22.0
61.8263 30.0
61.8953 15.0
61.9642 16.0
62.0331 20.0
62.1021 26.0
62.171 21.0
62.2399 25.0
62.3089 25.0
62.3778 18.0
62.4467 36.0
62.5157 25.0
62.5846 34.0
62.6535 34.0
62.7225 34.0
62.7914 39.0
62.8603 46.0
62.9293 39.0
62.9982 42.0
63.0671 54.0
63.1361 64.0
63.205 58.0
63.2739 75.0
63.3429 70.0
63.4118 82.0
63.4807 99.0
63.5497 113.0
63.6186 157.0
63.6875 164.0
63.7565 241.0
63.8254 286.0
63.8943 425.0
63.9633 549.0
64.0322 710.0
64.1011 980.0
64.1701 1342.0
64.239 1658.0
64.3079 1947.0
64.3769 1941.0
64.4458 1824.0
64.5148 1505.0
64.5837 1167.0
64.6526 840.0
64.7216 613.0
64.7905 386.0
64.8594 318.0
64.9284 283.0
64.9973 219.0
65.0662 187.0
65.1352 150.0
65.2041 120.0
65.273 100.0
65.342 93.0
65.4109 76.0
65.4798 66.0
65.5488 63.0
65.6177 88.0
65.6866 61.0
65.7556 61.0
65.8245 67.0
65.8934 73.0
65.9624 78.0
66.0313 57.0
66.1002 64.0
66.1692 65.0
66.2381 67.0
66.307 56.0
66.376 92.0
66.4449 86.0
66.5138 91.0
66.5828 97.0
66.6517 92.0
66.7206 99.0
66.7896 101.0
66.8585 108.0
66.9274 112.0
66.9964 156.0
67.0653 142.0
67.1342 170.0
67.2032 167.0
67.2721 223.0
67.341 201.0
67.41 228.0
67.4789 330.0
67.5478 371.0
67.6168 460.0
67.6857 670.0
67.7546 1274.0
67.8236 1498.0
67.8925 1517.0
67.9615 2624.0
68.0304 8694.0
68.0993 142776.0
68.1683 20689.0
68.2372 9690.0
68.3061 76127.0
68.3751 7297.0
68.444 2146.0
68.5129 1307.0
68.5819 930.0
68.6508 672.0
68.7197 559.0
68.7887 459.0
68.8576 344.0
68.9265 345.0
68.9955 317.0
69.0644 211.0
69.1333 205.0
69.2023 199.0
69.2712 144.0
69.3401 170.0
69.4091 128.0
69.478 107.0
69.5469 114.0
69.6159 95.0
69.6848 100.0
69.7537 87.0
69.8227 75.0
69.8916 69.0
69.9605 44.0
70.0295 54.0
70.0984 46.0
70.1673 44.0
70.2363 35.0
70.3052 38.0
70.3741 42.0
70.4431 42.0
70.512 39.0
70.5809 31.0
70.6499 36.0
70.7188 34.0
70.7877 38.0
70.8567 23.0
70.9256 32.0
70.9945 22.0
71.0635 21.0
71.1324 24.0
71.2013 22.0
71.2703 21.0
71.3392 25.0
71.4082 12.0
71.4771 29.0
71.546 22.0
71.615 27.0
71.6839 17.0
71.7528 15.0
71.8218 17.0
71.8907 17.0
71.9596 13.0
72.0286 26.0
72.0975 18.0
72.1664 21.0
72.2354 21.0
72.3043 23.0
72.3732 20.0
72.4422 19.0
72.5111 15.0
72.58 16.0
72.649 15.0
72.7179 17.0
72.7868 18.0
72.8558 21.0
72.9247 18.0
72.9936 22.0
73.0626 12.0
73.1315 16.0
73.2004 12.0
73.2694 6.0
73.3383 11.0
73.4072 15.0
73.4762 20.0
73.5451 17.0
73.614 15.0
73.683 21.0
73.7519 18.0
73.8208 20.0
73.8898 11.0
73.9587 16.0
74.0276 13.0
74.0966 18.0
74.1655 21.0
74.2344 12.0
74.3034 18.0
74.3723 11.0
74.4412 8.0
74.5102 12.0
74.5791 11.0
74.648 15.0
74.717 19.0
74.7859 21.0
74.8548 14.0
74.9238 13.0
74.9927 14.0
74.9976 17.0