File: data/W6715/XRD_2ThetaOmega/phi180scan_2th-om_m_Cr2O3_55-75deg_PIXscan_4min_W6715_3.xy
55.0019 14.0
55.0708 15.0
55.1397 7.0
55.2087 15.0
55.2776 12.0
55.3465 12.0
55.4155 13.0
55.4844 11.0
55.5533 20.0
55.6223 14.0
55.6912 10.0
55.7601 19.0
55.8291 9.0
55.898 20.0
55.9669 8.0
56.0359 12.0
56.1048 10.0
56.1737 14.0
56.2427 18.0
56.3116 14.0
56.3805 6.0
56.4495 16.0
56.5184 10.0
56.5873 10.0
56.6563 11.0
56.7252 17.0
56.7941 15.0
56.8631 14.0
56.932 14.0
57.0009 14.0
57.0699 14.0
57.1388 17.0
57.2077 11.0
57.2767 9.0
57.3456 23.0
57.4146 18.0
57.4835 15.0
57.5524 19.0
57.6214 18.0
57.6903 25.0
57.7592 22.0
57.8282 15.0
57.8971 10.0
57.966 13.0
58.035 16.0
58.1039 8.0
58.1728 7.0
58.2418 21.0
58.3107 10.0
58.3796 13.0
58.4486 22.0
58.5175 13.0
58.5864 18.0
58.6554 13.0
58.7243 8.0
58.7932 13.0
58.8622 19.0
58.9311 15.0
59 10.0
59.069 17.0
59.1379 14.0
59.2068 11.0
59.2758 15.0
59.3447 14.0
59.4136 18.0
59.4826 16.0
59.5515 15.0
59.6204 13.0
59.6894 16.0
59.7583 18.0
59.8272 22.0
59.8962 16.0
59.9651 13.0
60.034 12.0
60.103 16.0
60.1719 15.0
60.2408 21.0
60.3098 25.0
60.3787 19.0
60.4476 18.0
60.5166 23.0
60.5855 32.0
60.6544 28.0
60.7234 89.0
60.7923 690.0
60.8613 207.0
60.9302 84.0
60.9991 42.0
61.0681 24.0
61.137 28.0
61.2059 27.0
61.2749 20.0
61.3438 21.0
61.4127 18.0
61.4817 22.0
61.5506 19.0
61.6195 20.0
61.6885 17.0
61.7574 30.0
61.8263 26.0
61.8953 15.0
61.9642 18.0
62.0331 19.0
62.1021 30.0
62.171 24.0
62.2399 30.0
62.3089 15.0
62.3778 15.0
62.4467 33.0
62.5157 31.0
62.5846 30.0
62.6535 29.0
62.7225 41.0
62.7914 43.0
62.8603 36.0
62.9293 51.0
62.9982 41.0
63.0671 52.0
63.1361 44.0
63.205 51.0
63.2739 70.0
63.3429 84.0
63.4118 108.0
63.4807 93.0
63.5497 106.0
63.6186 139.0
63.6875 184.0
63.7565 223.0
63.8254 289.0
63.8943 377.0
63.9633 478.0
64.0322 655.0
64.1011 818.0
64.1701 1191.0
64.239 1500.0
64.3079 1681.0
64.3769 1649.0
64.4458 1521.0
64.5148 1298.0
64.5837 1036.0
64.6526 672.0
64.7216 523.0
64.7905 416.0
64.8594 314.0
64.9284 258.0
64.9973 188.0
65.0662 149.0
65.1352 147.0
65.2041 118.0
65.273 111.0
65.342 71.0
65.4109 82.0
65.4798 79.0
65.5488 76.0
65.6177 71.0
65.6866 69.0
65.7556 76.0
65.8245 54.0
65.8934 74.0
65.9624 63.0
66.0313 65.0
66.1002 67.0
66.1692 72.0
66.2381 90.0
66.307 92.0
66.376 74.0
66.4449 77.0
66.5138 110.0
66.5828 84.0
66.6517 110.0
66.7206 120.0
66.7896 117.0
66.8585 130.0
66.9274 126.0
66.9964 139.0
67.0653 155.0
67.1342 158.0
67.2032 173.0
67.2721 172.0
67.341 182.0
67.41 272.0
67.4789 304.0
67.5478 354.0
67.6168 425.0
67.6857 645.0
67.7546 1268.0
67.8236 1510.0
67.8925 1463.0
67.9615 2451.0
68.0304 7622.0
68.0993 133052.0
68.1683 27104.0
68.2372 8917.0
68.3061 79568.0
68.3751 9080.0
68.444 2368.0
68.5129 1366.0
68.5819 914.0
68.6508 724.0
68.7197 571.0
68.7887 456.0
68.8576 394.0
68.9265 345.0
68.9955 318.0
69.0644 200.0
69.1333 220.0
69.2023 209.0
69.2712 174.0
69.3401 156.0
69.4091 152.0
69.478 129.0
69.5469 121.0
69.6159 107.0
69.6848 89.0
69.7537 87.0
69.8227 92.0
69.8916 60.0
69.9605 73.0
70.0295 62.0
70.0984 60.0
70.1673 56.0
70.2363 50.0
70.3052 42.0
70.3741 46.0
70.4431 35.0
70.512 36.0
70.5809 25.0
70.6499 33.0
70.7188 25.0
70.7877 31.0
70.8567 31.0
70.9256 38.0
70.9945 24.0
71.0635 19.0
71.1324 27.0
71.2013 30.0
71.2703 20.0
71.3392 29.0
71.4082 21.0
71.4771 22.0
71.546 25.0
71.615 21.0
71.6839 24.0
71.7528 27.0
71.8218 17.0
71.8907 24.0
71.9596 29.0
72.0286 22.0
72.0975 20.0
72.1664 23.0
72.2354 15.0
72.3043 15.0
72.3732 14.0
72.4422 23.0
72.5111 20.0
72.58 21.0
72.649 23.0
72.7179 20.0
72.7868 10.0
72.8558 15.0
72.9247 19.0
72.9936 19.0
73.0626 21.0
73.1315 15.0
73.2004 16.0
73.2694 10.0
73.3383 11.0
73.4072 18.0
73.4762 19.0
73.5451 23.0
73.614 6.0
73.683 19.0
73.7519 12.0
73.8208 14.0
73.8898 23.0
73.9587 9.0
74.0276 17.0
74.0966 18.0
74.1655 15.0
74.2344 18.0
74.3034 21.0
74.3723 10.0
74.4412 14.0
74.5102 15.0
74.5791 16.0
74.648 25.0
74.717 9.0
74.7859 15.0
74.8548 13.0
74.9238 16.0
74.9927 16.0
74.9976 14.0