File: data/W6715/XRD_2ThetaOmega/phi270scan_2th-om_m_Cr2O3_55-75deg_PIXscan_4min_W6715_4.xy
55.0019 15.0
55.0708 16.0
55.1397 7.0
55.2087 12.0
55.2776 11.0
55.3465 6.0
55.4155 17.0
55.4844 5.0
55.5533 9.0
55.6223 12.0
55.6912 21.0
55.7601 14.0
55.8291 15.0
55.898 9.0
55.9669 8.0
56.0359 10.0
56.1048 14.0
56.1737 14.0
56.2427 15.0
56.3116 11.0
56.3805 14.0
56.4495 11.0
56.5184 11.0
56.5873 10.0
56.6563 9.0
56.7252 13.0
56.7941 11.0
56.8631 13.0
56.932 13.0
57.0009 12.0
57.0699 11.0
57.1388 16.0
57.2077 14.0
57.2767 24.0
57.3456 20.0
57.4146 30.0
57.4835 31.0
57.5524 33.0
57.6214 25.0
57.6903 33.0
57.7592 12.0
57.8282 18.0
57.8971 14.0
57.966 14.0
58.035 16.0
58.1039 16.0
58.1728 16.0
58.2418 13.0
58.3107 17.0
58.3796 13.0
58.4486 14.0
58.5175 13.0
58.5864 10.0
58.6554 11.0
58.7243 13.0
58.7932 14.0
58.8622 15.0
58.9311 10.0
59 9.0
59.069 11.0
59.1379 10.0
59.2068 15.0
59.2758 13.0
59.3447 11.0
59.4136 7.0
59.4826 17.0
59.5515 14.0
59.6204 17.0
59.6894 10.0
59.7583 7.0
59.8272 11.0
59.8962 13.0
59.9651 16.0
60.034 10.0
60.103 18.0
60.1719 18.0
60.2408 23.0
60.3098 20.0
60.3787 21.0
60.4476 19.0
60.5166 26.0
60.5855 17.0
60.6544 28.0
60.7234 100.0
60.7923 673.0
60.8613 227.0
60.9302 60.0
60.9991 27.0
61.0681 31.0
61.137 23.0
61.2059 25.0
61.2749 27.0
61.3438 25.0
61.4127 32.0
61.4817 17.0
61.5506 19.0
61.6195 20.0
61.6885 15.0
61.7574 25.0
61.8263 24.0
61.8953 31.0
61.9642 26.0
62.0331 22.0
62.1021 29.0
62.171 24.0
62.2399 24.0
62.3089 18.0
62.3778 32.0
62.4467 40.0
62.5157 37.0
62.5846 41.0
62.6535 32.0
62.7225 47.0
62.7914 56.0
62.8603 52.0
62.9293 56.0
62.9982 50.0
63.0671 59.0
63.1361 62.0
63.205 72.0
63.2739 93.0
63.3429 101.0
63.4118 126.0
63.4807 132.0
63.5497 169.0
63.6186 209.0
63.6875 276.0
63.7565 379.0
63.8254 457.0
63.8943 613.0
63.9633 858.0
64.0322 1289.0
64.1011 1729.0
64.1701 2352.0
64.239 3210.0
64.3079 3723.0
64.3769 3748.0
64.4458 3218.0
64.5148 2688.0
64.5837 2102.0
64.6526 1436.0
64.7216 1014.0
64.7905 791.0
64.8594 576.0
64.9284 436.0
64.9973 370.0
65.0662 288.0
65.1352 233.0
65.2041 168.0
65.273 139.0
65.342 128.0
65.4109 98.0
65.4798 102.0
65.5488 80.0
65.6177 91.0
65.6866 84.0
65.7556 66.0
65.8245 64.0
65.8934 69.0
65.9624 75.0
66.0313 60.0
66.1002 77.0
66.1692 72.0
66.2381 76.0
66.307 63.0
66.376 91.0
66.4449 105.0
66.5138 91.0
66.5828 87.0
66.6517 97.0
66.7206 133.0
66.7896 106.0
66.8585 119.0
66.9274 121.0
66.9964 157.0
67.0653 148.0
67.1342 155.0
67.2032 184.0
67.2721 183.0
67.341 211.0
67.41 279.0
67.4789 320.0
67.5478 376.0
67.6168 476.0
67.6857 661.0
67.7546 1245.0
67.8236 1494.0
67.8925 1476.0
67.9615 2580.0
68.0304 7722.0
68.0993 134392.0
68.1683 25305.0
68.2372 9155.0
68.3061 76626.0
68.3751 8430.0
68.444 2273.0
68.5129 1340.0
68.5819 852.0
68.6508 701.0
68.7197 558.0
68.7887 438.0
68.8576 348.0
68.9265 346.0
68.9955 297.0
69.0644 268.0
69.1333 205.0
69.2023 173.0
69.2712 172.0
69.3401 159.0
69.4091 134.0
69.478 109.0
69.5469 81.0
69.6159 99.0
69.6848 79.0
69.7537 78.0
69.8227 72.0
69.8916 49.0
69.9605 63.0
70.0295 56.0
70.0984 39.0
70.1673 49.0
70.2363 47.0
70.3052 46.0
70.3741 39.0
70.4431 38.0
70.512 30.0
70.5809 34.0
70.6499 36.0
70.7188 35.0
70.7877 32.0
70.8567 29.0
70.9256 32.0
70.9945 40.0
71.0635 28.0
71.1324 26.0
71.2013 28.0
71.2703 23.0
71.3392 22.0
71.4082 20.0
71.4771 19.0
71.546 24.0
71.615 32.0
71.6839 16.0
71.7528 13.0
71.8218 15.0
71.8907 13.0
71.9596 22.0
72.0286 20.0
72.0975 23.0
72.1664 26.0
72.2354 26.0
72.3043 27.0
72.3732 24.0
72.4422 14.0
72.5111 22.0
72.58 11.0
72.649 9.0
72.7179 15.0
72.7868 21.0
72.8558 15.0
72.9247 18.0
72.9936 15.0
73.0626 15.0
73.1315 19.0
73.2004 24.0
73.2694 12.0
73.3383 11.0
73.4072 16.0
73.4762 12.0
73.5451 9.0
73.614 21.0
73.683 9.0
73.7519 12.0
73.8208 19.0
73.8898 18.0
73.9587 13.0
74.0276 16.0
74.0966 4.0
74.1655 9.0
74.2344 12.0
74.3034 19.0
74.3723 16.0
74.4412 14.0
74.5102 14.0
74.5791 11.0
74.648 9.0
74.717 12.0
74.7859 20.0
74.8548 17.0
74.9238 7.0
74.9927 18.0
74.9976 14.0