File: data/W6715/XRD_2ThetaOmega/phi90scan_2th-om_m_Cr2O3_55-75deg_PIXscan_4min_W6715_2.xy
55.0019 14.0
55.0708 13.0
55.1397 15.0
55.2087 15.0
55.2776 11.0
55.3465 10.0
55.4155 9.0
55.4844 10.0
55.5533 24.0
55.6223 10.0
55.6912 14.0
55.7601 13.0
55.8291 18.0
55.898 8.0
55.9669 10.0
56.0359 16.0
56.1048 7.0
56.1737 16.0
56.2427 7.0
56.3116 8.0
56.3805 15.0
56.4495 12.0
56.5184 14.0
56.5873 15.0
56.6563 13.0
56.7252 7.0
56.7941 11.0
56.8631 8.0
56.932 8.0
57.0009 13.0
57.0699 14.0
57.1388 12.0
57.2077 16.0
57.2767 14.0
57.3456 17.0
57.4146 25.0
57.4835 22.0
57.5524 30.0
57.6214 26.0
57.6903 19.0
57.7592 17.0
57.8282 13.0
57.8971 16.0
57.966 14.0
58.035 9.0
58.1039 19.0
58.1728 12.0
58.2418 6.0
58.3107 14.0
58.3796 8.0
58.4486 16.0
58.5175 12.0
58.5864 10.0
58.6554 10.0
58.7243 12.0
58.7932 11.0
58.8622 12.0
58.9311 7.0
59 10.0
59.069 18.0
59.1379 10.0
59.2068 20.0
59.2758 15.0
59.3447 5.0
59.4136 12.0
59.4826 16.0
59.5515 14.0
59.6204 11.0
59.6894 7.0
59.7583 12.0
59.8272 19.0
59.8962 13.0
59.9651 7.0
60.034 9.0
60.103 13.0
60.1719 12.0
60.2408 24.0
60.3098 25.0
60.3787 10.0
60.4476 19.0
60.5166 18.0
60.5855 18.0
60.6544 29.0
60.7234 105.0
60.7923 614.0
60.8613 183.0
60.9302 69.0
60.9991 42.0
61.0681 23.0
61.137 27.0
61.2059 20.0
61.2749 20.0
61.3438 24.0
61.4127 21.0
61.4817 21.0
61.5506 18.0
61.6195 20.0
61.6885 22.0
61.7574 18.0
61.8263 20.0
61.8953 25.0
61.9642 30.0
62.0331 23.0
62.1021 38.0
62.171 20.0
62.2399 39.0
62.3089 24.0
62.3778 30.0
62.4467 31.0
62.5157 35.0
62.5846 36.0
62.6535 31.0
62.7225 40.0
62.7914 41.0
62.8603 45.0
62.9293 44.0
62.9982 58.0
63.0671 67.0
63.1361 63.0
63.205 76.0
63.2739 67.0
63.3429 99.0
63.4118 100.0
63.4807 136.0
63.5497 142.0
63.6186 193.0
63.6875 218.0
63.7565 308.0
63.8254 442.0
63.8943 603.0
63.9633 824.0
64.0322 1194.0
64.1011 1727.0
64.1701 2257.0
64.239 3073.0
64.3079 3566.0
64.3769 3530.0
64.4458 3017.0
64.5148 2603.0
64.5837 1929.0
64.6526 1297.0
64.7216 944.0
64.7905 709.0
64.8594 511.0
64.9284 426.0
64.9973 308.0
65.0662 255.0
65.1352 218.0
65.2041 147.0
65.273 174.0
65.342 118.0
65.4109 109.0
65.4798 103.0
65.5488 93.0
65.6177 70.0
65.6866 67.0
65.7556 64.0
65.8245 66.0
65.8934 77.0
65.9624 73.0
66.0313 75.0
66.1002 57.0
66.1692 64.0
66.2381 61.0
66.307 69.0
66.376 87.0
66.4449 68.0
66.5138 82.0
66.5828 82.0
66.6517 91.0
66.7206 74.0
66.7896 109.0
66.8585 107.0
66.9274 136.0
66.9964 141.0
67.0653 142.0
67.1342 160.0
67.2032 185.0
67.2721 170.0
67.341 199.0
67.41 299.0
67.4789 291.0
67.5478 366.0
67.6168 428.0
67.6857 664.0
67.7546 1266.0
67.8236 1453.0
67.8925 1522.0
67.9615 2551.0
68.0304 8565.0
68.0993 141696.0
68.1683 19724.0
68.2372 9774.0
68.3061 75354.0
68.3751 6988.0
68.444 2139.0
68.5129 1265.0
68.5819 851.0
68.6508 681.0
68.7197 581.0
68.7887 444.0
68.8576 393.0
68.9265 327.0
68.9955 288.0
69.0644 268.0
69.1333 190.0
69.2023 191.0
69.2712 180.0
69.3401 152.0
69.4091 150.0
69.478 142.0
69.5469 118.0
69.6159 102.0
69.6848 98.0
69.7537 85.0
69.8227 84.0
69.8916 72.0
69.9605 61.0
70.0295 76.0
70.0984 59.0
70.1673 58.0
70.2363 47.0
70.3052 39.0
70.3741 44.0
70.4431 37.0
70.512 42.0
70.5809 31.0
70.6499 30.0
70.7188 30.0
70.7877 38.0
70.8567 24.0
70.9256 35.0
70.9945 27.0
71.0635 38.0
71.1324 23.0
71.2013 31.0
71.2703 18.0
71.3392 30.0
71.4082 23.0
71.4771 25.0
71.546 18.0
71.615 24.0
71.6839 28.0
71.7528 15.0
71.8218 15.0
71.8907 21.0
71.9596 21.0
72.0286 15.0
72.0975 11.0
72.1664 20.0
72.2354 19.0
72.3043 21.0
72.3732 16.0
72.4422 25.0
72.5111 16.0
72.58 17.0
72.649 19.0
72.7179 22.0
72.7868 19.0
72.8558 13.0
72.9247 12.0
72.9936 21.0
73.0626 14.0
73.1315 17.0
73.2004 21.0
73.2694 8.0
73.3383 10.0
73.4072 17.0
73.4762 13.0
73.5451 23.0
73.614 11.0
73.683 6.0
73.7519 12.0
73.8208 9.0
73.8898 18.0
73.9587 18.0
74.0276 15.0
74.0966 20.0
74.1655 19.0
74.2344 10.0
74.3034 13.0
74.3723 13.0
74.4412 6.0
74.5102 15.0
74.5791 9.0
74.648 11.0
74.717 10.0
74.7859 10.0
74.8548 16.0
74.9238 12.0
74.9927 16.0
74.9976 18.0