File: data/W6715/XRD_2ThetaOmega/W6715_absolute_2th-om_58-72deg-20min_1.xy
58.0028 280.0
58.0496 236.0
58.0964 240.0
58.1432 248.0
58.1899 258.0
58.2367 276.0
58.2835 242.0
58.3303 260.0
58.377 276.0
58.4238 247.0
58.4706 230.0
58.5174 258.0
58.5642 256.0
58.6109 244.0
58.6577 275.0
58.7045 222.0
58.7513 261.0
58.798 247.0
58.8448 244.0
58.8916 228.0
58.9384 291.0
58.9851 239.0
59.0319 260.0
59.0787 270.0
59.1255 259.0
59.1722 223.0
59.219 263.0
59.2658 231.0
59.3126 236.0
59.3594 272.0
59.4061 259.0
59.4529 216.0
59.4997 242.0
59.5465 279.0
59.5932 241.0
59.64 268.0
59.6868 271.0
59.7336 274.0
59.7803 258.0
59.8271 256.0
59.8739 261.0
59.9207 242.0
59.9674 256.0
60.0142 230.0
60.061 265.0
60.1078 265.0
60.1546 288.0
60.2013 250.0
60.2481 303.0
60.2949 281.0
60.3417 297.0
60.3884 291.0
60.4352 294.0
60.482 302.0
60.5288 290.0
60.5755 284.0
60.6223 312.0
60.6691 318.0
60.7159 453.0
60.7627 997.0
60.8094 2371.0
60.8562 1564.0
60.903 1065.0
60.9498 588.0
60.9965 401.0
61.0433 378.0
61.0901 369.0
61.1369 409.0
61.1836 362.0
61.2304 403.0
61.2772 414.0
61.324 395.0
61.3707 419.0
61.4175 378.0
61.4643 385.0
61.5111 346.0
61.5579 352.0
61.6046 317.0
61.6514 322.0
61.6982 333.0
61.745 361.0
61.7917 344.0
61.8385 369.0
61.8853 354.0
61.9321 312.0
61.9788 355.0
62.0256 316.0
62.0724 340.0
62.1192 315.0
62.166 323.0
62.2127 374.0
62.2595 373.0
62.3063 357.0
62.3531 354.0
62.3998 356.0
62.4466 358.0
62.4934 359.0
62.5402 362.0
62.5869 383.0
62.6337 362.0
62.6805 383.0
62.7273 394.0
62.774 378.0
62.8208 384.0
62.8676 392.0
62.9144 410.0
62.9612 428.0
63.0079 437.0
63.0547 416.0
63.1015 473.0
63.1483 511.0
63.195 437.0
63.2418 522.0
63.2886 549.0
63.3354 601.0
63.3821 605.0
63.4289 673.0
63.4757 734.0
63.5225 806.0
63.5693 858.0
63.616 922.0
63.6628 1038.0
63.7096 1220.0
63.7564 1410.0
63.8031 1676.0
63.8499 2051.0
63.8967 2515.0
63.9435 2961.0
63.9902 3682.0
64.037 4613.0
64.0838 5762.0
64.1306 7180.0
64.1773 8920.0
64.2241 10618.0
64.2709 12579.0
64.3177 14285.0
64.3645 15167.0
64.4112 14399.0
64.458 13334.0
64.5048 11996.0
64.5516 10798.0
64.5983 9030.0
64.6451 7019.0
64.6919 5766.0
64.7387 4640.0
64.7854 3869.0
64.8322 3500.0
64.879 3978.0
64.9258 5983.0
64.9725 4312.0
65.0193 2410.0
65.0661 1791.0
65.1129 1482.0
65.1597 1294.0
65.2064 1071.0
65.2532 1037.0
65.3 973.0
65.3468 882.0
65.3935 885.0
65.4403 1176.0
65.4871 1403.0
65.5339 991.0
65.5806 810.0
65.6274 660.0
65.6742 642.0
65.721 632.0
65.7678 632.0
65.8145 589.0
65.8613 568.0
65.9081 581.0
65.9549 592.0
66.0016 558.0
66.0484 625.0
66.0952 619.0
66.142 604.0
66.1887 612.0
66.2355 574.0
66.2823 606.0
66.3291 576.0
66.3758 690.0
66.4226 594.0
66.4694 694.0
66.5162 661.0
66.563 690.0
66.6097 691.0
66.6565 758.0
66.7033 748.0
66.7501 768.0
66.7968 786.0
66.8436 844.0
66.8904 844.0
66.9372 909.0
66.9839 849.0
67.0307 988.0
67.0775 1047.0
67.1243 1027.0
67.1711 1039.0
67.2178 1153.0
67.2646 1117.0
67.3114 1224.0
67.3582 1320.0
67.4049 1414.0
67.4517 1573.0
67.4985 1701.0
67.5453 1866.0
67.592 2064.0
67.6388 2339.0
67.6856 2832.0
67.7324 4015.0
67.7791 6017.0
67.8259 6994.0
67.8727 6830.0
67.9195 7443.0
67.9663 10161.0
68.013 18396.0
68.0598 48651.0
68.1066 437018.0
68.1534 553009.0
68.2001 73147.0
68.2469 39874.0
68.2937 179198.0
68.3405 317723.0
68.3872 52938.0
68.434 16521.0
68.4808 9632.0
68.5276 6871.0
68.5743 5289.0
68.6211 4362.0
68.6679 3584.0
68.7147 3257.0
68.7615 2814.0
68.8082 2571.0
68.855 2375.0
68.9018 2070.0
68.9486 2032.0
68.9953 1987.0
69.0421 1773.0
69.0889 1743.0
69.1357 1620.0
69.1824 1593.0
69.2292 1483.0
69.276 1303.0
69.3228 1291.0
69.3696 1252.0
69.4163 1206.0
69.4631 1067.0
69.5099 1153.0
69.5567 1061.0
69.6034 1008.0
69.6502 960.0
69.697 1008.0
69.7438 899.0
69.7905 880.0
69.8373 850.0
69.8841 745.0
69.9309 716.0
69.9776 737.0
70.0244 747.0
70.0712 662.0
70.118 677.0
70.1648 618.0
70.2115 572.0
70.2583 589.0
70.3051 524.0
70.3519 565.0
70.3986 543.0
70.4454 530.0
70.4922 517.0
70.539 490.0
70.5857 466.0
70.6325 465.0
70.6793 444.0
70.7261 439.0
70.7729 482.0
70.8196 407.0
70.8664 463.0
70.9132 400.0
70.96 402.0
71.0067 412.0
71.0535 419.0
71.1003 412.0
71.1471 370.0
71.1938 386.0
71.2406 334.0
71.2874 371.0
71.3342 415.0
71.3809 367.0
71.4277 366.0
71.4745 380.0
71.5213 367.0
71.5681 366.0
71.6148 351.0
71.6616 371.0
71.7084 372.0
71.7552 372.0
71.8019 339.0
71.8487 336.0
71.8955 350.0
71.9423 343.0
71.989 378.0
71.9989 318.0