File: data/W6933a/XRD_2ThetaOmega/w6933a_2theta
30.01000 0.0
30.05000 0.0
30.09000 0.0
30.13000 0.0
30.17000 0.0
30.21000 0.0
30.25000 1.0
30.29000 0.0
30.33000 1.0
30.37000 1.0
30.41000 0.0
30.45000 2.0
30.49000 2.0
30.53000 0.0
30.57000 0.0
30.61000 1.0
30.65000 0.0
30.69000 0.0
30.73000 1.0
30.77000 0.0
30.81000 2.0
30.85000 1.0
30.89000 0.0
30.93000 1.0
30.97000 1.0
31.01000 0.0
31.05000 0.0
31.09000 0.0
31.13000 0.0
31.17000 1.0
31.21000 0.0
31.25000 0.0
31.29000 0.0
31.33000 0.0
31.37000 0.0
31.41000 0.0
31.45000 0.0
31.49000 1.0
31.53000 0.0
31.57000 0.0
31.61000 1.0
31.65000 1.0
31.69000 1.0
31.73000 0.0
31.77000 0.0
31.81000 1.0
31.85000 0.0
31.89000 0.0
31.93000 0.0
31.97000 1.0
32.01000 1.0
32.05000 0.0
32.09000 0.0
32.13000 0.0
32.17000 0.0
32.21000 0.0
32.25000 1.0
32.29000 0.0
32.33000 0.0
32.37000 0.0
32.41000 0.0
32.45000 0.0
32.49000 0.0
32.53000 0.0
32.57000 0.0
32.61000 0.0
32.65000 0.0
32.69000 0.0
32.73000 1.0
32.77000 0.0
32.81000 0.0
32.85000 0.0
32.89000 1.0
32.93000 1.0
32.97000 0.0
33.01000 0.0
33.05000 2.0
33.09000 1.0
33.13000 2.0
33.17000 0.0
33.21000 0.0
33.25000 0.0
33.29000 0.0
33.33000 0.0
33.37000 0.0
33.41000 0.0
33.45000 0.0
33.49000 1.0
33.53000 0.0
33.57000 2.0
33.61000 1.0
33.65000 1.0
33.69000 0.0
33.73000 0.0
33.77000 0.0
33.81000 1.0
33.85000 0.0
33.89000 0.0
33.93000 1.0
33.97000 0.0
34.01000 3.0
34.05000 0.0
34.09000 1.0
34.13000 0.0
34.17000 0.0
34.21000 1.0
34.25000 1.0
34.29000 1.0
34.33000 0.0
34.37000 0.0
34.41000 1.0
34.45000 2.0
34.49000 0.0
34.53000 0.0
34.57000 0.0
34.61000 1.0
34.65000 3.0
34.69000 1.0
34.73000 1.0
34.77000 0.0
34.81000 0.0
34.85000 1.0
34.89000 2.0
34.93000 0.0
34.97000 1.0
35.01000 2.0
35.05000 0.0
35.09000 1.0
35.13000 1.0
35.17000 0.0
35.21000 0.0
35.25000 3.0
35.29000 1.0
35.33000 4.0
35.37000 2.0
35.41000 2.0
35.45000 0.0
35.49000 1.0
35.53000 8.0
35.57000 4.0
35.61000 5.0
35.65000 7.0
35.69000 9.0
35.73000 10.0
35.77000 19.0
35.81000 21.0
35.85000 27.0
35.89000 37.0
35.93000 73.0
35.97000 187.0
36.01000 401.0
36.05000 586.0
36.09000 437.0
36.13000 426.0
36.17000 299.0
36.21000 128.0
36.25000 84.0
36.29000 58.0
36.33000 34.0
36.37000 25.0
36.41000 17.0
36.45000 10.0
36.49000 12.0
36.53000 7.0
36.57000 7.0
36.61000 15.0
36.65000 5.0
36.69000 3.0
36.73000 5.0
36.77000 6.0
36.81000 4.0
36.85000 3.0
36.89000 4.0
36.93000 6.0
36.97000 4.0
37.01000 7.0
37.05000 13.0
37.09000 6.0
37.13000 11.0
37.17000 4.0
37.21000 9.0
37.25000 10.0
37.29000 12.0
37.33000 20.0
37.37000 20.0
37.41000 24.0
37.45000 27.0
37.49000 34.0
37.53000 50.0
37.57000 68.0
37.61000 147.0
37.65000 204.0
37.69000 284.0
37.73000 702.0
37.77000 10430.0
37.81000 5074.0
37.85000 1457.0
37.89000 8817.0
37.93000 708.0
37.97000 310.0
38.01000 211.0
38.05000 204.0
38.09000 110.0
38.13000 99.0
38.17000 69.0
38.21000 24.0
38.25000 27.0
38.29000 19.0
38.33000 20.0
38.37000 24.0
38.41000 12.0
38.45000 11.0
38.49000 9.0
38.53000 18.0
38.57000 8.0
38.61000 10.0
38.65000 2.0
38.69000 6.0
38.73000 4.0
38.77000 6.0
38.81000 4.0
38.85000 3.0
38.89000 3.0
38.93000 1.0
38.97000 2.0
39.01000 4.0
39.05000 2.0
39.09000 2.0
39.13000 6.0
39.17000 4.0
39.21000 3.0
39.25000 2.0
39.29000 0.0
39.33000 1.0
39.37000 2.0
39.41000 2.0
39.45000 2.0
39.49000 0.0
39.53000 2.0
39.57000 2.0
39.61000 5.0
39.65000 0.0
39.69000 0.0
39.73000 1.0
39.77000 3.0
39.81000 0.0
39.85000 3.0
39.89000 1.0
39.93000 1.0
39.97000 0.0
39.99000 5.0