File: data/W6816c2/XRD_Omega/W6816c2_Omega-Scan_2deg_0.002_0_7.xy
18.75230 219.0
18.76030 226.0
18.76830 240.0
18.77630 210.0
18.78430 225.0
18.79230 240.0
18.80030 223.0
18.80830 249.0
18.81630 193.0
18.82430 229.0
18.83230 236.0
18.84030 243.0
18.84830 223.0
18.85630 230.0
18.86430 240.0
18.87230 235.0
18.88030 248.0
18.88830 260.0
18.89630 233.0
18.90430 291.0
18.91230 244.0
18.92030 243.0
18.92830 258.0
18.93630 269.0
18.94430 257.0
18.95230 255.0
18.96030 268.0
18.96830 311.0
18.97630 305.0
18.98430 310.0
18.99230 299.0
19.00030 286.0
19.00830 327.0
19.01630 324.0
19.02430 318.0
19.03230 332.0
19.04030 350.0
19.04830 344.0
19.05630 374.0
19.06430 409.0
19.07230 386.0
19.08030 468.0
19.08830 498.0
19.09630 520.0
19.10430 545.0
19.11230 589.0
19.12030 621.0
19.12830 641.0
19.13630 648.0
19.14430 707.0
19.15230 724.0
19.16030 763.0
19.16830 798.0
19.17630 824.0
19.18430 832.0
19.19230 884.0
19.20030 939.0
19.20830 1029.0
19.21630 1013.0
19.22430 1070.0
19.23230 1156.0
19.24030 1114.0
19.24830 1196.0
19.25630 1229.0
19.26430 1362.0
19.27230 1381.0
19.28030 1470.0
19.28830 1613.0
19.29630 1666.0
19.30430 1663.0
19.31230 1809.0
19.32030 1874.0
19.32830 2013.0
19.33630 2027.0
19.34430 2080.0
19.35230 2073.0
19.36030 2151.0
19.36830 2188.0
19.37630 2071.0
19.38430 2083.0
19.39230 2000.0
19.40030 1930.0
19.40830 1856.0
19.41630 1753.0
19.42430 1757.0
19.43230 1614.0
19.44030 1460.0
19.44830 1373.0
19.45630 1372.0
19.46430 1261.0
19.47230 1266.0
19.48030 1132.0
19.48830 1044.0
19.49630 1059.0
19.50430 900.0
19.51230 858.0
19.52030 839.0
19.52830 759.0
19.53630 745.0
19.54430 704.0
19.55230 696.0
19.56030 642.0
19.56830 592.0
19.57630 566.0
19.58430 543.0
19.59230 496.0
19.60030 545.0
19.60830 494.0
19.61630 458.0
19.62430 460.0
19.63230 444.0
19.64030 453.0
19.64830 446.0
19.65630 418.0
19.66430 407.0
19.67230 405.0
19.68030 442.0
19.68830 397.0
19.69630 402.0
19.70430 377.0
19.71230 389.0
19.72030 400.0
19.72830 451.0
19.73630 590.0
19.74430 624.0
19.75230 601.0
19.76030 574.0
19.76830 507.0
19.77630 411.0
19.78430 448.0
19.79230 377.0
19.80030 413.0
19.80830 405.0
19.81630 371.0
19.82430 367.0
19.83230 361.0
19.84030 368.0
19.84830 335.0
19.85630 317.0
19.86430 324.0
19.87230 337.0
19.88030 334.0
19.88830 329.0
19.89630 303.0
19.90430 344.0
19.91230 326.0
19.92030 276.0
19.92830 300.0
19.93630 245.0
19.94430 279.0
19.95230 284.0
19.96030 250.0
19.96830 239.0
19.97630 274.0
19.98430 258.0
19.99230 233.0
20.00030 245.0
20.00830 235.0
20.01630 235.0
20.02430 234.0
20.03230 224.0
20.04030 228.0
20.04830 236.0
20.05630 248.0
20.06430 230.0
20.07230 231.0
20.08030 257.0
20.08830 245.0
20.09630 251.0
20.10430 235.0
20.11230 206.0
20.12030 210.0
20.12830 244.0
20.13630 239.0
20.14430 250.0
20.15230 231.0
20.16030 240.0
20.16830 217.0
20.17630 229.0
20.18430 209.0
20.19230 226.0
20.20030 225.0
20.20830 263.0
20.21630 264.0
20.22430 262.0
20.23230 273.0
20.24030 253.0
20.24830 224.0
20.25630 213.0
20.26430 249.0
20.27230 259.0
20.28030 249.0
20.28830 244.0
20.29630 244.0
20.30430 268.0
20.31230 252.0
20.32030 256.0
20.32830 246.0
20.33630 251.0
20.34430 250.0
20.35230 212.0
20.36030 218.0
20.36830 181.0
20.37630 160.0
20.38430 180.0
20.39230 196.0
20.40030 171.0
20.40830 163.0
20.41630 174.0
20.42430 181.0
20.43230 203.0
20.44030 197.0
20.44830 191.0
20.45630 169.0
20.46430 167.0
20.47230 181.0
20.48030 191.0
20.48830 169.0
20.49630 173.0
20.50430 148.0
20.51230 174.0
20.52030 161.0
20.52830 188.0
20.53630 190.0
20.54430 171.0
20.55230 175.0
20.56030 171.0
20.56830 167.0
20.57630 147.0
20.58430 164.0
20.59230 137.0
20.60030 186.0
20.60830 174.0
20.61630 171.0
20.62430 145.0
20.63230 151.0
20.64030 168.0
20.64830 173.0
20.65630 188.0
20.66430 208.0
20.67230 162.0
20.68030 176.0
20.68830 207.0
20.69630 166.0
20.70430 163.0
20.71230 195.0
20.72030 195.0
20.72830 208.0
20.73630 160.0