File: data/W6816c2/XRD_Omega/W6816c2_Cr2O3_scan_omega_2deg_step_0.002deg0_3_new.xy
18.35930 189.0
18.36730 189.0
18.37530 204.0
18.38330 179.0
18.39130 175.0
18.39930 192.0
18.40730 169.0
18.41530 174.0
18.42330 192.0
18.43130 166.0
18.43930 178.0
18.44730 206.0
18.45530 218.0
18.46330 182.0
18.47130 198.0
18.47930 212.0
18.48730 208.0
18.49530 202.0
18.50330 193.0
18.51130 206.0
18.51930 193.0
18.52730 201.0
18.53530 238.0
18.54330 195.0
18.55130 230.0
18.55930 186.0
18.56730 190.0
18.57530 205.0
18.58330 222.0
18.59130 181.0
18.59930 220.0
18.60730 222.0
18.61530 243.0
18.62330 222.0
18.63130 248.0
18.63930 223.0
18.64730 222.0
18.65530 222.0
18.66330 208.0
18.67130 230.0
18.67930 227.0
18.68730 236.0
18.69530 228.0
18.70330 231.0
18.71130 272.0
18.71930 259.0
18.72730 257.0
18.73530 244.0
18.74330 224.0
18.75130 278.0
18.75930 224.0
18.76730 218.0
18.77530 282.0
18.78330 247.0
18.79130 280.0
18.79930 290.0
18.80730 284.0
18.81530 269.0
18.82330 304.0
18.83130 284.0
18.83930 311.0
18.84730 329.0
18.85530 337.0
18.86330 317.0
18.87130 318.0
18.87930 317.0
18.88730 339.0
18.89530 323.0
18.90330 361.0
18.91130 344.0
18.91930 347.0
18.92730 332.0
18.93530 387.0
18.94330 347.0
18.95130 361.0
18.95930 387.0
18.96730 377.0
18.97530 399.0
18.98330 401.0
18.99130 387.0
18.99930 456.0
19.00730 458.0
19.01530 445.0
19.02330 442.0
19.03130 495.0
19.03930 485.0
19.04730 485.0
19.05530 478.0
19.06330 447.0
19.07130 493.0
19.07930 550.0
19.08730 548.0
19.09530 570.0
19.10330 614.0
19.11130 611.0
19.11930 696.0
19.12730 692.0
19.13530 684.0
19.14330 668.0
19.15130 728.0
19.15930 725.0
19.16730 780.0
19.17530 778.0
19.18330 868.0
19.19130 870.0
19.19930 955.0
19.20730 903.0
19.21530 1011.0
19.22330 1079.0
19.23130 1059.0
19.23930 1204.0
19.24730 1199.0
19.25530 1194.0
19.26330 1268.0
19.27130 1413.0
19.27930 1410.0
19.28730 1514.0
19.29530 1653.0
19.30330 1618.0
19.31130 1865.0
19.31930 1881.0
19.32730 1843.0
19.33530 1982.0
19.34330 2118.0
19.35130 2062.0
19.35930 2149.0
19.36730 2158.0
19.37530 2148.0
19.38330 2031.0
19.39130 1890.0
19.39930 1921.0
19.40730 1888.0
19.41530 1836.0
19.42330 1698.0
19.43130 1582.0
19.43930 1470.0
19.44730 1407.0
19.45530 1339.0
19.46330 1188.0
19.47130 1149.0
19.47930 1114.0
19.48730 1045.0
19.49530 1010.0
19.50330 891.0
19.51130 925.0
19.51930 824.0
19.52730 742.0
19.53530 741.0
19.54330 695.0
19.55130 722.0
19.55930 646.0
19.56730 553.0
19.57530 604.0
19.58330 612.0
19.59130 544.0
19.59930 490.0
19.60730 523.0
19.61530 429.0
19.62330 490.0
19.63130 485.0
19.63930 425.0
19.64730 416.0
19.65530 486.0
19.66330 360.0
19.67130 373.0
19.67930 379.0
19.68730 348.0
19.69530 367.0
19.70330 342.0
19.71130 397.0
19.71930 395.0
19.72730 479.0
19.73530 548.0
19.74330 600.0
19.75130 624.0
19.75930 561.0
19.76730 506.0
19.77530 484.0
19.78330 403.0
19.79130 417.0
19.79930 376.0
19.80730 387.0
19.81530 410.0
19.82330 363.0
19.83130 328.0
19.83930 351.0
19.84730 297.0
19.85530 349.0
19.86330 305.0
19.87130 309.0
19.87930 313.0
19.88730 316.0
19.89530 345.0
19.90330 325.0
19.91130 320.0
19.91930 263.0
19.92730 286.0
19.93530 254.0
19.94330 220.0
19.95130 267.0
19.95930 233.0
19.96730 201.0
19.97530 201.0
19.98330 221.0
19.99130 241.0
19.99930 204.0
20.00730 211.0
20.01530 206.0
20.02330 231.0
20.03130 182.0
20.03930 221.0
20.04730 204.0
20.05530 177.0
20.06330 228.0
20.07130 211.0
20.07930 178.0
20.08730 201.0
20.09530 164.0
20.10330 195.0
20.11130 194.0
20.11930 194.0
20.12730 191.0
20.13530 180.0
20.14330 183.0
20.15130 179.0
20.15930 186.0
20.16730 197.0
20.17530 180.0
20.18330 189.0
20.19130 158.0
20.19930 181.0
20.20730 178.0
20.21530 188.0
20.22330 194.0
20.23130 177.0
20.23930 168.0
20.24730 164.0
20.25530 176.0
20.26330 168.0
20.27130 189.0
20.27930 159.0
20.28730 166.0
20.29530 198.0
20.30330 171.0
20.31130 170.0
20.31930 168.0
20.32730 177.0
20.33530 207.0
20.34330 178.0