File: data/W6726/XRD_2ThetaOmega/W6726_absolute_2th-om_10-130deg_17min.xy
10.0035 28.0
10.4072 28.0
10.811 29.0
11.2147 31.0
11.6185 21.0
12.0222 21.0
12.426 22.0
12.8298 16.0
13.2335 22.0
13.6373 17.0
14.041 27.0
14.4448 23.0
14.8485 21.0
15.2523 23.0
15.656 17.0
16.0598 4.0
16.4636 11.0
16.8673 14.0
17.2711 14.0
17.6748 15.0
18.0786 14.0
18.4823 17.0
18.8861 16.0
19.2899 17.0
19.6936 13.0
20.0974 3.0
20.5011 11.0
20.9049 9.0
21.3086 8.0
21.7124 10.0
22.1161 4.0
22.5199 7.0
22.9237 6.0
23.3274 13.0
23.7312 5.0
24.1349 8.0
24.5387 6.0
24.9424 10.0
25.3462 3.0
25.75 6.0
26.1537 9.0
26.5575 8.0
26.9612 10.0
27.365 11.0
27.7687 4.0
28.1725 8.0
28.5762 4.0
28.98 6.0
29.3838 4.0
29.7875 5.0
30.1913 6.0
30.595 4.0
30.9988 3.0
31.4025 3.0
31.8063 4.0
32.2101 5.0
32.6138 4.0
33.0176 6.0
33.4213 6.0
33.8251 8.0
34.2288 2.0
34.6326 5.0
35.0363 7.0
35.4401 6.0
35.8439 7.0
36.2476 6.0
36.6514 8.0
37.0551 1.0
37.4589 1.0
37.8626 3.0
38.2664 3.0
38.6702 0.0
39.0739 2.0
39.4777 0.0
39.8814 5.0
40.2852 6.0
40.6889 3.0
41.0927 3.0
41.4964 7.0
41.9002 3.0
42.304 1.0
42.7077 5.0
43.1115 2.0
43.5152 4.0
43.919 7.0
44.3227 2.0
44.7265 4.0
45.1303 2.0
45.534 3.0
45.9378 3.0
46.3415 3.0
46.7453 2.0
47.149 3.0
47.5528 7.0
47.9565 4.0
48.3603 3.0
48.7641 1.0
49.1678 4.0
49.5716 5.0
49.9753 3.0
50.3791 5.0
50.7828 1.0
51.1866 0.0
51.5903 3.0
51.9941 6.0
52.3979 5.0
52.8016 10.0
53.2054 5.0
53.6091 10.0
54.0129 8.0
54.4166 6.0
54.8204 9.0
55.2242 3.0
55.6279 6.0
56.0317 4.0
56.4354 1.0
56.8392 3.0
57.2429 5.0
57.6467 11.0
58.0504 4.0
58.4542 0.0
58.858 2.0
59.2617 1.0
59.6655 3.0
60.0692 3.0
60.473 3.0
60.8767 70.0
61.2805 19.0
61.6843 12.0
62.088 6.0
62.4918 15.0
62.8955 13.0
63.2993 29.0
63.703 59.0
64.1068 351.0
64.5105 766.0
64.9143 288.0
65.3181 36.0
65.7218 24.0
66.1256 25.0
66.5293 26.0
66.9331 27.0
67.3368 70.0
67.7406 215.0
68.1444 39156.0
68.5481 400.0
68.9519 104.0
69.3556 38.0
69.7594 36.0
70.1631 12.0
70.5669 9.0
70.9706 8.0
71.3744 6.0
71.7782 7.0
72.1819 9.0
72.5857 8.0
72.9894 4.0
73.3932 4.0
73.7969 4.0
74.2007 1.0
74.6045 5.0
75.0082 4.0
75.412 4.0
75.8157 4.0
76.2195 3.0
76.6232 0.0
77.027 4.0
77.4307 5.0
77.8345 5.0
78.2383 3.0
78.642 2.0
79.0458 0.0
79.4495 4.0
79.8533 2.0
80.257 7.0
80.6608 2.0
81.0646 1.0
81.4683 4.0
81.8721 5.0
82.2758 5.0
82.6796 0.0
83.0833 6.0
83.4871 6.0
83.8908 6.0
84.2946 5.0
84.6984 0.0
85.1021 1.0
85.5059 6.0
85.9096 4.0
86.3134 7.0
86.7171 0.0
87.1209 0.0
87.5247 3.0
87.9284 2.0
88.3322 4.0
88.7359 4.0
89.1397 1.0
89.5434 4.0
89.9472 2.0
90.3509 4.0
90.7547 3.0
91.1585 2.0
91.5622 0.0
91.966 0.0
92.3697 3.0
92.7735 2.0
93.1772 3.0
93.581 2.0
93.9848 1.0
94.3885 3.0
94.7923 3.0
95.196 4.0
95.5998 4.0
96.0035 3.0
96.4073 3.0
96.811 2.0
97.2148 6.0
97.6186 5.0
98.0223 2.0
98.4261 0.0
98.8298 0.0
99.2336 4.0
99.6373 4.0
100.041 6.0
100.445 0.0
100.849 3.0
101.252 2.0
101.656 2.0
102.06 1.0
102.464 3.0
102.867 1.0
103.271 0.0
103.675 0.0
104.079 0.0
104.482 6.0
104.886 6.0
105.29 2.0
105.694 1.0
106.097 2.0
106.501 1.0
106.905 4.0
107.309 2.0
107.712 2.0
108.116 0.0
108.52 2.0
108.924 3.0
109.327 3.0
109.731 2.0
110.135 2.0
110.539 0.0
110.943 2.0
111.346 2.0
111.75 4.0
112.154 0.0
112.558 0.0
112.961 4.0
113.365 2.0
113.769 4.0
114.173 1.0
114.576 3.0
114.98 3.0
115.384 2.0
115.788 5.0
116.191 0.0
116.595 5.0
116.999 5.0
117.403 3.0
117.806 1.0
118.21 2.0
118.614 1.0
119.018 1.0
119.421 1.0
119.825 2.0
120.229 0.0
120.633 3.0
121.036 0.0
121.44 1.0
121.844 5.0
122.248 0.0
122.651 3.0
123.055 3.0
123.459 4.0
123.863 4.0
124.266 3.0
124.67 3.0
125.074 6.0
125.478 1.0
125.881 0.0
126.285 1.0
126.689 2.0
127.093 5.0
127.497 3.0
127.9 0.0
128.304 1.0
128.708 2.0
129.112 2.0
129.515 1.0
129.919 3.0
129.998 6.0