File: data/W6933r/XRD_2ThetaOmega/w6933r_2theta
45.01000 1.0
45.05000 0.0
45.09000 4.0
45.13000 2.0
45.17000 4.0
45.21000 0.0
45.25000 2.0
45.29000 3.0
45.33000 3.0
45.37000 0.0
45.41000 4.0
45.45000 0.0
45.49000 2.0
45.53000 2.0
45.57000 0.0
45.61000 4.0
45.65000 1.0
45.69000 3.0
45.73000 1.0
45.77000 1.0
45.81000 2.0
45.85000 3.0
45.89000 2.0
45.93000 2.0
45.97000 2.0
46.01000 3.0
46.05000 1.0
46.09000 3.0
46.13000 1.0
46.17000 3.0
46.21000 3.0
46.25000 1.0
46.29000 3.0
46.33000 1.0
46.37000 2.0
46.41000 3.0
46.45000 0.0
46.49000 3.0
46.53000 2.0
46.57000 1.0
46.61000 2.0
46.65000 2.0
46.69000 3.0
46.73000 5.0
46.77000 1.0
46.81000 5.0
46.85000 0.0
46.89000 0.0
46.93000 1.0
46.97000 1.0
47.01000 3.0
47.05000 2.0
47.09000 1.0
47.13000 1.0
47.17000 1.0
47.21000 2.0
47.25000 2.0
47.29000 2.0
47.33000 2.0
47.37000 2.0
47.41000 0.0
47.45000 2.0
47.49000 0.0
47.53000 1.0
47.57000 5.0
47.61000 1.0
47.65000 2.0
47.69000 1.0
47.73000 1.0
47.77000 0.0
47.81000 2.0
47.85000 1.0
47.89000 1.0
47.93000 1.0
47.97000 1.0
48.01000 0.0
48.05000 0.0
48.09000 0.0
48.13000 2.0
48.17000 3.0
48.21000 3.0
48.25000 0.0
48.29000 1.0
48.33000 1.0
48.37000 1.0
48.41000 2.0
48.45000 3.0
48.49000 2.0
48.53000 3.0
48.57000 3.0
48.61000 1.0
48.65000 1.0
48.69000 4.0
48.73000 2.0
48.77000 1.0
48.81000 4.0
48.85000 1.0
48.89000 4.0
48.93000 0.0
48.97000 5.0
49.01000 0.0
49.05000 1.0
49.09000 1.0
49.13000 2.0
49.17000 2.0
49.21000 2.0
49.25000 2.0
49.29000 2.0
49.33000 3.0
49.37000 5.0
49.41000 5.0
49.45000 5.0
49.49000 7.0
49.53000 8.0
49.57000 13.0
49.61000 9.0
49.65000 17.0
49.69000 14.0
49.73000 32.0
49.77000 37.0
49.81000 46.0
49.85000 61.0
49.89000 61.0
49.93000 79.0
49.97000 119.0
50.01000 196.0
50.05000 263.0
50.09000 270.0
50.13000 245.0
50.17000 175.0
50.21000 157.0
50.25000 132.0
50.29000 82.0
50.33000 55.0
50.37000 36.0
50.41000 25.0
50.45000 14.0
50.49000 19.0
50.53000 10.0
50.57000 11.0
50.61000 9.0
50.65000 4.0
50.69000 7.0
50.73000 8.0
50.77000 4.0
50.81000 5.0
50.85000 9.0
50.89000 5.0
50.93000 0.0
50.97000 3.0
51.01000 5.0
51.05000 5.0
51.09000 4.0
51.13000 2.0
51.17000 5.0
51.21000 2.0
51.25000 3.0
51.29000 3.0
51.33000 4.0
51.37000 4.0
51.41000 7.0
51.45000 10.0
51.49000 5.0
51.53000 9.0
51.57000 6.0
51.61000 14.0
51.65000 6.0
51.69000 11.0
51.73000 9.0
51.77000 9.0
51.81000 13.0
51.85000 19.0
51.89000 21.0
51.93000 28.0
51.97000 25.0
52.01000 42.0
52.05000 38.0
52.09000 44.0
52.13000 47.0
52.17000 60.0
52.21000 75.0
52.25000 126.0
52.29000 240.0
52.33000 316.0
52.37000 321.0
52.41000 424.0
52.45000 729.0
52.49000 1992.0
52.53000 21479.0
52.57000 10068.0
52.61000 1776.0
52.65000 3466.0
52.69000 15102.0
52.73000 1969.0
52.77000 694.0
52.81000 482.0
52.85000 346.0
52.89000 247.0
52.93000 201.0
52.97000 153.0
53.01000 86.0
53.05000 72.0
53.09000 63.0
53.13000 40.0
53.17000 47.0
53.21000 32.0
53.25000 23.0
53.29000 37.0
53.33000 37.0
53.37000 29.0
53.41000 24.0
53.45000 22.0
53.49000 23.0
53.53000 15.0
53.57000 14.0
53.61000 14.0
53.65000 16.0
53.69000 16.0
53.73000 9.0
53.77000 11.0
53.81000 5.0
53.85000 7.0
53.89000 7.0
53.93000 6.0
53.97000 8.0
54.01000 12.0
54.05000 6.0
54.09000 11.0
54.13000 7.0
54.17000 3.0
54.21000 7.0
54.25000 5.0
54.29000 5.0
54.33000 4.0
54.37000 3.0
54.41000 3.0
54.45000 1.0
54.49000 2.0
54.53000 3.0
54.57000 5.0
54.61000 2.0
54.65000 5.0
54.69000 2.0
54.73000 3.0
54.77000 1.0
54.81000 2.0
54.85000 1.0
54.89000 5.0
54.93000 4.0
54.97000 1.0
54.99000 4.0